/*** Spectra Vista SIG Data ***/
name= S3.sig
comm= Averaged Ref/Tar of files: RD3S7,RD3S8,RD3S9
data=
346.4  598.78  210.21  35.11
347.9  627.50  213.35  34.00
349.5  677.04  213.20  31.49
351.1  739.44  219.44  29.68
352.6  790.63  226.65  28.67
354.2  841.03  235.62  28.02
355.7  912.59  244.71  26.81
357.3  974.37  261.22  26.81
358.8  992.58  260.96  26.29
360.4  1062.29  280.23  26.38
361.9  1117.88  277.44  24.82
363.5  1149.55  285.08  24.80
365.1  1196.29  287.80  24.06
366.6  1260.16  286.56  22.74
368.2  1349.72  298.82  22.14
369.7  1403.95  300.38  21.40
371.3  1488.21  304.01  20.43
372.8  1577.00  313.19  19.86
374.4  1638.71  321.51  19.62
375.9  1688.10  328.79  19.48
377.4  1740.09  327.42  18.82
379.0  1788.57  334.16  18.68
380.5  1855.73  328.27  17.69
382.1  1905.98  326.04  17.11
383.6  1973.16  329.81  16.71
385.2  2065.25  333.67  16.16
386.7  2149.76  340.24  15.83
388.3  2271.83  353.27  15.55
389.8  2363.45  363.26  15.37
391.3  2453.59  375.05  15.29
392.9  2526.36  378.39  14.98
394.4  2602.50  400.62  15.39
395.9  2690.98  414.48  15.40
397.5  2829.48  433.90  15.33
399.0  2963.31  441.87  14.91
400.6  3033.76  425.44  14.02
402.1  3072.78  412.80  13.43
403.6  3116.75  407.58  13.08
405.1  3199.00  410.54  12.83
406.7  3304.00  417.39  12.63
408.2  3412.53  426.94  12.51
409.7  3521.28  438.29  12.45
411.3  3642.17  445.23  12.22
412.8  3732.75  462.94  12.40
414.3  3845.02  478.08  12.43
415.8  3965.00  492.50  12.42
417.4  4085.95  501.78  12.28
418.9  4192.21  509.37  12.15
420.4  4267.16  520.10  12.19
421.9  4346.32  521.11  11.99
423.5  4413.15  518.37  11.75
425.0  4492.75  521.42  11.61
426.5  4594.55  527.47  11.48
428.0  4712.54  535.02  11.35
429.5  4856.53  541.15  11.14
431.1  5025.20  552.12  10.99
432.6  5198.44  567.78  10.92
434.1  5370.75  579.43  10.79
435.6  5520.56  590.82  10.70
437.1  5670.60  606.45  10.69
438.6  5806.58  615.70  10.60
440.1  5943.54  630.44  10.61
441.6  6091.61  638.13  10.48
443.1  6230.93  652.73  10.48
444.7  6356.12  663.77  10.44
446.2  6474.98  675.71  10.44
447.7  6582.53  692.56  10.52
449.2  6691.68  698.40  10.44
450.7  6814.08  699.57  10.27
452.2  6930.56  709.37  10.24
453.7  7066.33  707.75  10.02
455.2  7233.85  720.39  9.96
456.7  7443.04  736.27  9.89
458.2  7673.27  756.67  9.86
459.7  7920.50  771.17  9.74
461.2  8156.07  794.84  9.75
462.7  8366.46  811.47  9.70
464.2  8568.06  830.82  9.70
465.7  8788.58  848.63  9.66
467.2  8970.50  870.74  9.71
468.7  9176.00  890.67  9.71
470.2  9305.26  906.92  9.75
471.7  9490.50  942.09  9.93
473.2  9788.42  975.78  9.97
474.6  10042.30  989.32  9.85
476.1  10127.24  967.43  9.55
477.6  10169.21  952.00  9.36
479.1  10224.56  954.30  9.33
480.6  10293.47  956.28  9.29
482.1  10426.95  962.33  9.23
483.6  10590.11  976.11  9.22
485.1  10796.39  984.70  9.12
486.6  11041.55  1002.78  9.08
488.0  11290.50  1018.88  9.02
489.5  11568.25  1041.68  9.00
491.0  11840.59  1062.10  8.97
492.5  12119.22  1080.54  8.92
494.0  12409.65  1103.63  8.89
495.4  12660.45  1123.10  8.87
496.9  12912.44  1141.17  8.84
498.4  13155.80  1162.75  8.84
499.9  13408.52  1183.93  8.83
501.4  13645.90  1206.96  8.84
502.8  13864.50  1221.25  8.81
504.3  14081.40  1241.40  8.82
505.8  14291.05  1259.15  8.81
507.2  14436.37  1270.47  8.80
508.7  14548.87  1280.64  8.80
510.2  14651.50  1290.14  8.81
511.6  14718.08  1299.40  8.83
513.1  14838.45  1307.13  8.81
514.6  14986.45  1316.92  8.79
516.0  15112.04  1327.97  8.79
517.5  15305.31  1339.60  8.75
519.0  15537.89  1353.85  8.71
520.5  15768.60  1371.59  8.70
521.9  16045.99  1391.05  8.67
523.4  16363.11  1415.30  8.65
524.8  16675.79  1437.07  8.62
526.3  17027.53  1464.74  8.60
527.8  17380.80  1493.66  8.59
529.2  17706.86  1518.98  8.58
530.7  18056.71  1549.08  8.58
532.1  18377.28  1579.37  8.59
533.6  18738.23  1607.43  8.58
535.0  19114.67  1630.86  8.53
536.5  19476.07  1664.33  8.55
538.0  19846.24  1694.64  8.54
539.4  20198.95  1728.95  8.56
540.9  20626.19  1773.11  8.60
542.3  20984.92  1806.40  8.61
543.8  21250.33  1825.84  8.59
545.2  21329.19  1827.50  8.57
546.6  21331.64  1827.92  8.57
548.1  21362.06  1828.56  8.56
549.5  21376.46  1835.68  8.59
551.0  21386.66  1840.73  8.61
552.4  21443.54  1847.41  8.62
553.9  21463.89  1855.63  8.65
555.3  21521.57  1866.74  8.67
556.8  21650.10  1875.80  8.66
558.2  21773.81  1900.13  8.73
559.6  21936.94  1920.21  8.75
561.1  22168.25  1946.75  8.78
562.5  22423.78  1978.56  8.82
564.0  22757.43  2019.29  8.87
565.4  23059.14  2059.45  8.93
566.8  23449.52  2108.51  8.99
568.3  23818.66  2162.19  9.08
569.7  24198.01  2217.61  9.16
571.1  24579.14  2277.50  9.27
572.6  24952.86  2344.14  9.39
574.0  25317.60  2410.65  9.52
575.4  25678.69  2479.50  9.66
576.9  26008.29  2554.86  9.82
578.3  26306.64  2637.75  10.03
579.7  26593.28  2716.96  10.22
581.1  26823.10  2803.41  10.45
582.6  27065.10  2894.87  10.70
584.0  27286.52  2992.73  10.97
585.4  27587.92  3115.59  11.29
586.8  27978.96  3250.96  11.62
588.3  28419.30  3401.58  11.97
589.7  28786.68  3540.42  12.30
591.1  29016.81  3677.39  12.67
592.5  29127.43  3810.81  13.08
594.0  29186.34  3939.02  13.50
595.4  29194.56  4067.15  13.93
596.8  29193.45  4206.35  14.41
598.2  29177.08  4350.82  14.91
599.6  29153.88  4506.39  15.46
601.0  29216.28  4679.47  16.02
602.4  29261.60  4854.55  16.59
603.9  29364.60  5051.34  17.20
605.3  29484.10  5254.87  17.82
606.7  29584.80  5463.60  18.47
608.1  29785.49  5701.47  19.14
609.5  30013.28  5958.93  19.85
610.9  30296.78  6230.86  20.57
612.3  30557.28  6515.50  21.32
613.7  30914.00  6830.05  22.09
615.1  31159.08  7148.52  22.94
616.5  31406.64  7470.21  23.79
617.9  31801.61  7838.90  24.65
619.3  32170.62  8216.00  25.54
620.7  32635.92  8619.26  26.41
622.1  33083.75  9057.30  27.38
623.5  33564.04  9554.13  28.47
624.9  34116.86  10106.86  29.62
626.3  34490.69  10614.10  30.77
627.7  34145.81  10884.14  31.88
629.1  33851.16  11129.44  32.88
630.5  33743.57  11415.20  33.83
631.9  33775.53  11740.71  34.76
633.3  33808.52  12035.23  35.60
634.7  33992.91  12373.65  36.40
636.1  34075.08  12664.99  37.17
637.5  34196.58  12946.97  37.86
638.9  34374.61  13197.02  38.39
640.2  34545.58  13397.35  38.78
641.6  34634.34  13497.90  38.97
643.0  34657.83  13515.27  39.00
644.4  34696.37  13487.05  38.87
645.8  34653.86  13429.53  38.75
647.2  34834.41  13487.02  38.72
648.5  34958.93  13526.46  38.69
649.9  34861.32  13504.79  38.74
651.3  34789.65  13532.85  38.90
652.7  34680.00  13583.00  39.17
654.1  34452.30  13577.56  39.41
655.5  34172.42  13520.60  39.57
656.8  33904.63  13419.65  39.58
658.2  34070.04  13442.84  39.46
659.6  34442.82  13510.05  39.22
660.9  34748.70  13504.91  38.86
662.3  35067.95  13455.94  38.37
663.7  35364.00  13383.30  37.84
665.0  35617.00  13278.71  37.28
666.4  35877.31  13177.46  36.73
667.8  36209.10  13121.18  36.24
669.1  36482.80  13064.82  35.81
670.5  36799.72  13059.74  35.49
671.9  36995.40  13054.64  35.29
673.2  37270.13  13118.68  35.20
674.6  37530.47  13218.45  35.22
676.0  37841.78  13393.88  35.39
677.3  38141.57  13637.75  35.76
678.7  38483.75  13995.25  36.37
680.0  38922.37  14512.72  37.29
681.4  39389.45  15202.44  38.60
682.8  39844.35  16080.46  40.36
684.1  40287.78  17166.24  42.61
685.5  40705.56  18435.98  45.29
686.8  41091.84  19879.26  48.38
688.2  41433.89  21433.92  51.73
689.5  41549.57  22942.96  55.22
690.9  41633.44  24456.31  58.74
692.2  41697.60  25910.55  62.14
693.6  41771.65  27316.66  65.40
694.9  41721.88  28566.86  68.47
696.2  41751.90  29772.64  71.31
697.6  41766.04  30884.11  73.95
698.9  41796.48  31911.44  76.35
700.3  41844.24  32859.69  78.53
701.6  41918.48  33733.50  80.47
703.0  41979.40  34536.07  82.27
704.3  41981.71  35217.27  83.89
705.6  41967.18  35810.58  85.33
707.0  41980.75  36367.35  86.63
708.3  41872.71  36785.85  87.85
709.6  41753.67  37144.64  88.96
711.0  41589.99  37421.65  89.98
712.3  41418.66  37648.92  90.90
713.6  41354.04  37945.60  91.76
714.9  41240.96  38158.98  92.53
716.3  41218.54  38443.15  93.27
717.6  41221.95  38721.64  93.93
718.9  41134.56  38885.52  94.53
720.2  40936.00  38926.32  95.09
721.6  40765.66  38989.60  95.64
722.9  40572.15  39005.02  96.14
724.2  40305.71  38919.14  96.56
725.5  40134.57  38912.80  96.96
726.8  39960.91  38863.79  97.25
728.1  39855.98  38885.25  97.56
729.5  39766.23  38890.65  97.80
730.8  39707.44  38908.09  97.99
732.1  39612.07  38878.56  98.15
733.4  39556.45  38887.54  98.31
734.7  39507.57  38887.55  98.43
736.0  39511.29  38959.64  98.60
737.3  39463.58  38969.24  98.75
738.6  39569.04  39148.56  98.94
739.9  39770.92  39429.87  99.14
741.2  39928.98  39645.06  99.29
742.5  40206.42  40007.22  99.50
743.8  40696.43  40559.75  99.66
745.1  41398.16  41354.87  99.90
746.4  42245.84  42258.58  100.03
747.7  43136.62  43198.08  100.14
749.0  43980.49  44102.38  100.28
750.3  44484.44  44617.59  100.30
751.6  44396.66  44570.12  100.39
752.9  43969.12  44159.67  100.43
754.2  43470.53  43707.06  100.54
755.4  42928.75  43231.96  100.71
756.7  42746.48  43130.14  100.90
758.0  42774.71  43229.80  101.06
759.3  43048.01  43585.69  101.25
760.6  43418.76  44040.92  101.43
761.9  43775.94  44461.79  101.57
763.1  43996.61  44734.41  101.68
764.4  44239.34  45035.69  101.80
765.7  44424.25  45275.75  101.92
767.0  44583.75  45478.73  102.01
768.2  44688.00  45664.64  102.19
769.5  44782.92  45807.03  102.29
770.8  44990.42  46069.99  102.40
772.0  45014.41  46151.18  102.53
773.3  45100.97  46286.63  102.63
774.6  45226.84  46471.82  102.75
775.8  45313.45  46609.12  102.86
777.1  45344.81  46684.56  102.95
778.4  45245.88  46642.05  103.09
779.6  45226.44  46671.37  103.19
780.9  45132.00  46645.33  103.35
782.1  44952.26  46514.74  103.48
783.4  44936.32  46547.63  103.59
784.6  44935.72  46612.05  103.73
785.9  45255.62  46989.07  103.83
787.1  45836.93  47666.58  103.99
788.4  46288.94  48192.59  104.11
789.6  46219.23  48147.11  104.17
790.9  45788.99  47683.01  104.14
792.1  45296.16  47194.48  104.19
793.4  44771.54  46736.46  104.39
794.6  44415.30  46437.46  104.55
795.8  44134.47  46183.14  104.64
797.1  43801.05  45888.78  104.77
798.3  43569.08  45700.19  104.89
799.5  43411.48  45594.34  105.03
800.8  43273.13  45470.14  105.08
802.0  43071.08  45341.63  105.27
803.2  42890.28  45172.88  105.32
804.5  42742.15  45056.16  105.41
805.7  42601.95  44928.02  105.46
806.9  42426.40  44773.37  105.53
808.1  42305.67  44682.41  105.62
809.4  42221.44  44608.16  105.65
810.6  42105.70  44514.17  105.72
811.8  42062.43  44482.81  105.75
813.0  42071.08  44486.95  105.74
814.2  42081.20  44504.91  105.76
815.4  42185.03  44603.40  105.73
816.6  42225.34  44641.46  105.72
817.9  42273.21  44650.45  105.62
819.1  42166.58  44548.60  105.65
820.3  42039.03  44352.10  105.50
821.5  41905.07  44204.96  105.49
822.7  41849.58  44097.72  105.37
823.9  41838.35  44055.39  105.30
825.1  41851.34  44005.86  105.15
826.3  41890.94  43956.26  104.93
827.5  41937.05  43921.27  104.73
828.7  42011.28  43885.44  104.46
829.9  42039.57  43847.23  104.30
831.0  42140.75  43851.62  104.06
832.2  42235.78  43864.45  103.86
833.4  42305.18  43877.73  103.72
834.6  42417.19  43904.69  103.51
835.8  42496.65  43936.20  103.39
837.0  42597.61  44013.56  103.32
838.1  42745.68  44147.57  103.28
839.3  42856.00  44208.24  103.16
840.5  42989.60  44307.55  103.07
841.7  43156.80  44455.50  103.01
842.9  43298.86  44583.89  102.97
844.0  43430.88  44705.88  102.94
845.2  43568.90  44848.23  102.94
846.4  43732.15  44960.66  102.81
847.5  43960.00  45176.23  102.77
848.7  44164.79  45381.91  102.76
849.9  44393.85  45560.35  102.63
851.0  44478.08  45628.99  102.59
852.2  44569.63  45708.36  102.55
853.3  44562.81  45685.94  102.52
854.5  44594.90  45694.61  102.47
855.6  44615.97  45683.28  102.39
856.8  44687.86  45725.09  102.32
857.9  44681.40  45730.05  102.35
859.1  44832.20  45849.00  102.27
860.2  44876.88  45867.03  102.21
861.4  44954.55  45916.05  102.14
862.5  45021.69  45968.79  102.10
863.7  45150.84  46059.80  102.01
864.8  45213.35  46071.20  101.90
865.9  45167.77  46033.70  101.92
867.1  45241.43  46049.44  101.79
868.2  45295.54  46064.95  101.70
869.3  45314.27  46052.69  101.63
870.5  45282.48  45976.27  101.53
871.6  45315.83  45966.59  101.44
872.7  45413.27  46029.68  101.36
873.9  45478.16  46036.48  101.23
875.0  45456.71  45954.96  101.10
876.1  45452.45  45912.04  101.01
877.2  45498.99  45906.28  100.90
878.3  45519.98  45865.13  100.76
879.4  45563.53  45847.64  100.62
880.5  45631.08  45849.12  100.48
881.7  45596.20  45770.83  100.38
882.8  45693.96  45754.27  100.13
883.9  45722.91  45749.18  100.06
885.0  45675.63  45640.14  99.92
886.1  45712.78  45557.69  99.66
887.2  45537.58  45360.97  99.61
888.3  45475.07  45181.32  99.35
889.4  45347.40  45017.49  99.27
890.5  45259.13  44871.92  99.14
891.6  45193.70  44751.60  99.02
892.7  45201.31  44667.51  98.82
893.8  45270.56  44622.49  98.57
894.9  45248.28  44554.40  98.47
896.0  45235.90  44461.93  98.29
897.0  45257.72  44420.64  98.15
898.1  45230.13  44369.48  98.10
899.2  45252.30  44305.85  97.91
900.3  45165.90  44151.78  97.75
901.4  45101.16  44017.00  97.60
902.4  45077.20  43943.96  97.49
903.5  45018.01  43801.06  97.30
904.6  45035.56  43759.38  97.17
905.7  45038.93  43673.24  96.97
906.7  44985.82  43591.96  96.90
907.8  45025.57  43537.31  96.69
908.9  44904.57  43382.16  96.61
909.9  44897.74  43264.15  96.36
911.0  44830.08  43126.85  96.20
912.1  44749.25  42969.12  96.02
913.1  44707.00  42786.99  95.71
914.2  44554.62  42582.36  95.57
915.2  44505.45  42464.16  95.41
916.3  44491.35  42370.80  95.23
917.3  44461.10  42238.55  95.00
918.4  44383.35  42009.18  94.65
919.4  44330.69  41864.45  94.44
920.5  44315.70  41726.31  94.16
921.5  44285.78  41598.32  93.93
922.6  44268.10  41361.13  93.43
923.6  44262.16  41253.88  93.20
924.7  44333.00  41093.67  92.69
925.7  44276.22  40927.72  92.44
926.7  44252.98  40797.43  92.19
927.8  44374.33  40676.47  91.67
928.8  44502.63  40556.29  91.13
929.9  44598.23  40483.21  90.77
930.9  44802.27  40448.40  90.28
931.9  45011.35  40467.54  89.91
932.9  45355.12  40527.63  89.36
934.0  45370.16  40339.45  88.91
935.0  45397.97  40182.25  88.51
936.0  45413.73  39933.45  87.93
937.0  45319.95  39657.93  87.51
938.1  45295.44  39438.41  87.07
939.1  45257.91  39177.05  86.56
940.1  45342.90  39034.15  86.09
941.1  45568.46  39015.33  85.62
942.1  45803.34  39004.70  85.16
943.1  45999.43  38914.14  84.60
944.1  46171.28  38893.94  84.24
945.2  46338.18  38712.80  83.54
946.2  46411.22  38517.70  82.99
947.2  46518.25  38332.75  82.40
948.2  46693.82  38222.57  81.86
949.2  46838.19  38021.21  81.18
950.2  46912.95  37803.87  80.58
951.2  46909.80  37594.48  80.14
952.2  47054.57  37408.32  79.50
953.2  47260.85  37254.64  78.83
954.2  47365.65  37104.60  78.34
955.2  47408.68  36880.24  77.79
956.2  47434.65  36627.48  77.22
957.2  47543.77  36485.35  76.74
958.2  47601.59  36338.55  76.34
959.2  47735.55  36263.70  75.97
960.1  47775.14  36161.83  75.69
961.1  47870.63  36143.77  75.50
962.1  47933.44  36034.69  75.18
963.1  48032.50  35974.21  74.90
964.1  48057.21  35997.77  74.91
965.1  48243.99  36075.89  74.78
966.1  48335.33  36020.35  74.52
967.0  48410.39  36090.32  74.55
968.0  48434.88  36038.60  74.41
969.0  48556.60  36073.27  74.29
970.0  48603.65  36081.18  74.24
971.0  48737.12  36106.63  74.08
971.9  48722.90  36111.16  74.12
972.9  48879.95  36143.63  73.94
973.9  48859.53  36235.99  74.16
974.9  49044.08  36269.10  73.95
975.8  49101.73  36291.76  73.91
976.8  49135.91  36396.97  74.07
977.8  49315.41  36487.46  73.99
978.8  49372.50  36569.70  74.07
979.7  49504.50  36645.55  74.02
980.7  49626.72  36862.16  74.28
981.7  49868.69  37042.83  74.28
982.6  50026.42  37255.76  74.47
983.6  50542.44  37696.91  74.58
984.6  51139.74  38118.33  74.54
985.5  51570.00  38711.88  75.07
986.5  52881.11  39364.41  74.44
987.5  53801.49  40328.20  74.96
988.4  54737.10  41150.63  75.18
989.4  56052.04  42070.24  75.06
990.4  57074.27  43304.43  75.87
991.3  59136.61  44764.31  75.70
992.3  61232.97  45843.22  74.87
993.2  62381.81  47347.35  75.90
994.2  63759.15  48409.73  75.93
995.2  64627.45  50265.79  77.78
996.1  65405.36  50633.12  77.41
997.1  65143.00  50920.12  78.17
998.0  67149.60  50819.00  75.68
999.0  66846.51  51309.22  76.76
1000.0  67127.69  51127.05  76.16
1000.9  65712.83  51416.03  78.24
1001.9  66491.34  51490.25  77.44
1002.8  64393.95  51013.39  79.22
1003.8  65025.46  51351.20  78.97
1004.8  66172.20  51568.68  77.93
961.5  59748.86  36094.24  60.41
965.5  58598.35  35739.02  60.99
969.5  56260.49  35015.12  62.24
973.4  53913.29  34184.15  63.41
977.4  51859.95  33638.08  64.86
981.4  50850.20  33657.81  66.19
985.3  50481.20  33912.00  67.18
989.3  50535.22  34327.05  67.93
993.3  50635.09  34747.17  68.62
997.2  50595.02  35050.41  69.28
1001.2  50545.04  35338.81  69.92
1005.2  50473.33  35660.60  70.65
1009.1  50535.74  36123.06  71.48
1013.1  50697.93  36688.95  72.37
1017.1  50843.90  37258.54  73.28
1021.0  50855.49  37738.85  74.21
1025.0  50816.26  38185.06  75.14
1029.0  50641.08  38515.09  76.06
1032.9  50496.42  38846.82  76.93
1036.9  50486.34  39274.72  77.79
1040.9  50614.23  39797.65  78.63
1044.8  50848.91  40383.15  79.42
1048.8  51055.33  40892.40  80.09
1052.7  51200.97  41310.60  80.68
1056.7  51265.76  41618.95  81.18
1060.7  51328.86  41849.55  81.53
1064.6  51364.29  42006.27  81.78
1068.6  51285.22  42022.42  81.94
1072.5  51205.93  41976.77  81.98
1076.5  51155.97  41901.94  81.91
1080.4  51154.95  41799.25  81.71
1084.4  51258.31  41712.03  81.38
1088.3  51367.47  41589.00  80.96
1092.3  51376.13  41299.92  80.39
1096.2  51342.58  40971.98  79.80
1100.2  51360.86  40677.74  79.20
1104.1  51244.60  40233.10  78.51
1108.1  51175.76  39824.48  77.82
1112.0  51059.75  39359.81  77.09
1116.0  50831.30  38779.02  76.29
1119.9  50653.13  38133.61  75.28
1123.9  50703.41  37531.03  74.02
1127.8  50649.60  36615.68  72.29
1131.8  50608.23  35433.00  70.01
1135.7  50617.81  34076.81  67.32
1139.6  50606.06  32586.18  64.39
1143.6  50555.26  31138.75  61.59
1147.5  50517.05  29892.32  59.17
1151.4  50365.69  28829.52  57.24
1155.4  50355.11  28135.77  55.87
1159.3  50376.78  27684.51  54.95
1163.2  50207.59  27270.34  54.32
1167.2  50161.80  27036.16  53.90
1171.1  50174.37  26881.67  53.58
1175.0  50101.08  26702.48  53.30
1179.0  50065.70  26545.05  53.02
1182.9  50165.17  26466.68  52.76
1186.8  50159.61  26345.44  52.52
1190.7  49934.95  26124.91  52.32
1194.7  49665.47  25910.60  52.17
1198.6  49438.62  25753.04  52.09
1202.5  49264.40  25664.37  52.10
1206.4  49122.14  25624.56  52.16
1210.3  49037.26  25636.63  52.28
1214.2  48930.30  25685.49  52.49
1218.2  48765.56  25732.22  52.77
1222.1  48630.48  25819.01  53.09
1226.0  48538.40  25931.66  53.43
1229.9  48450.48  26033.60  53.73
1233.8  48352.03  26119.85  54.02
1237.7  48317.50  26213.51  54.25
1241.6  48229.08  26281.37  54.49
1245.5  48061.09  26300.83  54.72
1249.4  47934.98  26312.08  54.89
1253.3  47803.87  26320.18  55.06
1257.2  47735.46  26338.87  55.18
1261.1  47624.11  26310.10  55.25
1265.0  47490.52  26244.89  55.26
1268.9  47304.07  26125.12  55.23
1272.8  47372.70  26118.35  55.13
1276.7  47590.81  26149.05  54.95
1280.6  47691.16  26088.83  54.70
1284.5  47615.01  25893.77  54.38
1288.4  47591.67  25696.41  53.99
1292.3  47467.75  25407.25  53.53
1296.2  47318.59  25058.36  52.96
1300.1  47148.87  24666.16  52.32
1303.9  46897.39  24189.62  51.58
1307.8  46639.44  23665.94  50.74
1311.7  46386.67  23100.49  49.80
1315.6  46123.85  22498.25  48.78
1319.5  45848.18  21862.40  47.68
1323.3  45606.50  21216.70  46.52
1327.2  45386.16  20568.53  45.32
1331.1  45132.53  19918.59  44.13
1335.0  44824.46  19255.04  42.96
1338.8  44600.56  18655.87  41.83
1342.7  44421.07  18103.44  40.75
