/*** Spectra Vista SIG Data ***/
name= RT2.sig
comm= Resampled spectral data SIG file reprocesed for matching/overlap;Averaged Ref/Tar of files: RD4T4,RD4T5,RD4T6
data=
346.0  340.80  97.67  28.66
356.0  544.40  110.48  20.29
366.0  714.82  123.12  17.22
376.0  985.51  129.80  13.17
386.0  1234.28  123.23  9.98
396.0  1571.48  155.42  9.89
406.0  1902.87  140.17  7.37
416.0  2323.69  166.95  7.18
426.0  2651.86  170.29  6.42
436.0  3232.15  181.02  5.60
446.0  3759.85  210.87  5.61
456.0  4269.90  224.31  5.25
466.0  5082.33  257.33  5.06
476.0  5806.26  291.20  5.02
486.0  6254.23  290.48  4.64
496.0  7250.74  336.97  4.65
506.0  8053.28  402.23  4.99
516.0  8382.21  465.12  5.55
526.0  9307.96  584.49  6.28
536.0  10571.91  740.98  7.01
546.0  11634.41  883.62  7.59
556.0  11722.26  956.88  8.16
566.0  12508.83  1128.15  9.02
576.0  13771.49  1425.23  10.35
586.0  14774.45  1827.06  12.37
596.0  15587.87  2335.63  14.98
606.0  15848.54  2871.00  18.12
616.0  16885.10  3610.71  21.38
626.0  18631.00  4487.50  24.09
636.0  18309.52  5015.84  27.39
646.0  18394.72  4787.70  26.03
656.0  17983.29  4237.76  23.56
666.0  19024.69  4041.62  21.24
676.0  20228.64  4064.03  20.09
686.0  21934.23  6347.59  28.94
696.0  22524.19  11374.63  50.50
706.0  22702.97  14641.46  64.49
716.0  22282.05  15891.18  71.32
726.0  21555.98  16134.55  74.85
736.0  21106.80  16019.14  75.90
746.0  22280.51  17108.96  76.79
756.0  22712.19  17611.71  77.54
766.0  23623.07  18482.14  78.24
776.0  24204.34  19105.98  78.94
786.0  24295.32  19388.30  79.80
796.0  23798.27  19271.38  80.98
806.0  23070.19  18859.47  81.75
816.0  22947.41  18812.73  81.98
826.0  22787.74  18519.01  81.27
836.0  23109.32  18395.64  79.60
846.0  23653.93  18646.22  78.83
856.0  24083.28  18878.61  78.39
866.0  24262.93  18911.37  77.94
876.0  24343.13  18819.86  77.31
886.0  24496.13  18697.60  76.33
896.0  24260.72  18307.28  75.46
906.0  24262.35  18027.89  74.30
916.0  24072.36  17528.89  72.82
926.0  24039.88  16893.72  70.27
936.0  24726.44  16470.87  66.61
946.0  25298.31  15767.52  62.33
956.0  25919.98  14906.59  57.51
966.0  26425.55  14516.04  54.93
976.0  26850.07  14390.13  53.59
986.0  27758.72  16794.94  60.50
996.0  27918.33  17351.40  62.15
1006.0  27825.91  17797.14  63.96
1016.0  28000.53  18417.49  65.78
1026.0  27983.39  19002.29  67.91
1036.0  27803.88  19446.27  69.94
1046.0  27996.08  20103.32  71.81
1056.0  28151.32  20609.61  73.21
1066.0  28162.44  20836.99  73.99
1076.0  28041.72  20774.16  74.08
1086.0  28134.93  20649.37  73.39
1096.0  28141.99  20323.97  72.22
1106.0  28093.87  19865.35  70.71
1116.0  27913.60  19251.40  68.97
1126.0  27864.38  18431.46  66.15
1136.0  27855.20  16953.56  60.86
1146.0  27850.62  15171.50  54.47
1156.0  27756.80  13969.72  50.33
1166.0  27673.55  13432.52  48.54
1176.0  27649.95  13182.50  47.68
1186.0  27693.98  13022.45  47.02
1196.0  27377.68  12745.94  46.56
1206.0  27139.63  12622.94  46.51
1216.0  26983.64  12631.67  46.81
1226.0  26811.29  12729.80  47.48
1236.0  26703.89  12849.09  48.12
1246.0  26555.08  12914.62  48.63
1256.0  26398.37  12932.57  48.99
1266.0  26225.07  12876.87  49.10
1276.0  26281.74  12835.58  48.84
1286.0  26317.57  12668.77  48.14
1296.0  26164.93  12303.30  47.02
1306.0  25851.16  11729.82  45.37
1316.0  25466.94  10994.83  43.17
1326.0  25102.64  10154.79  40.45
1336.0  24711.74  9309.12  37.67
1346.0  24357.27  8589.96  35.27
1356.0  23834.98  7940.45  33.31
1366.0  23462.31  7278.52  31.02
1376.0  23379.97  6540.76  27.98
1386.0  23168.31  5365.04  23.16
1396.0  22909.51  4111.88  17.95
1406.0  22641.74  3198.11  14.12
1416.0  22605.66  2681.94  11.86
1426.0  22524.22  2419.89  10.74
1436.0  22438.31  2286.18  10.19
1446.0  22309.52  2225.36  9.97
1456.0  22172.59  2191.81  9.89
1466.0  22064.56  2207.62  10.01
1476.0  21856.23  2277.79  10.42
1486.0  21705.72  2420.12  11.15
1496.0  21520.14  2606.36  12.11
1506.0  21340.95  2735.80  12.82
1516.0  21119.97  2821.74  13.36
1526.0  20921.85  2931.80  14.01
1536.0  20747.86  3070.95  14.80
1546.0  20552.87  3231.15  15.72
1556.0  20397.04  3384.60  16.59
1566.0  20216.74  3512.32  17.37
1576.0  19962.98  3643.72  18.25
1586.0  19767.00  3739.36  18.92
1596.0  19549.38  3802.94  19.45
1606.0  19330.13  3876.82  20.06
1616.0  19098.52  3932.93  20.59
1626.0  18878.81  3989.45  21.13
1636.0  18648.55  4023.41  21.57
1646.0  18384.16  4029.57  21.92
1656.0  18103.83  4013.63  22.17
1666.0  17834.60  3977.07  22.30
1676.0  17605.05  3910.17  22.21
1686.0  17604.01  3857.74  21.91
1696.0  17396.94  3743.14  21.52
1706.0  17135.12  3592.36  20.96
1716.0  16749.46  3400.70  20.30
1726.0  16500.07  3233.69  19.60
1736.0  16292.21  3132.81  19.23
1746.0  16090.83  3037.94  18.88
1756.0  15804.78  2889.16  18.28
1766.0  15562.34  2766.18  17.77
1776.0  15425.89  2702.42  17.52
1786.0  15257.86  2637.19  17.28
1796.0  15062.10  2588.13  17.18
1806.0  14888.36  2567.76  17.25
1816.0  14685.39  2543.44  17.32
1826.0  14422.53  2495.79  17.30
1836.0  14078.09  2417.98  17.18
1846.0  13824.21  2314.74  16.74
1856.0  13588.46  2151.96  15.84
1866.0  13510.63  1887.43  13.97
1876.0  13269.82  1471.17  11.09
1886.0  13099.28  1102.78  8.42
1896.0  12805.19  902.91  7.05
1906.0  12015.47  606.01  5.04
1916.0  11822.28  596.18  5.04
1926.0  11658.93  589.81  5.06
1936.0  11558.01  614.40  5.32
1946.0  11557.85  616.69  5.34
1956.0  11379.66  652.63  5.74
1966.0  11384.81  681.53  5.99
1976.0  11284.15  713.99  6.33
1986.0  11146.12  736.95  6.61
1996.0  10980.89  780.45  7.11
2006.0  10882.16  811.87  7.46
2016.0  10688.58  843.39  7.89
2026.0  10532.56  878.41  8.34
2036.0  10356.58  892.34  8.62
2046.0  10202.97  901.81  8.84
2056.0  10030.20  927.43  9.25
2066.0  9865.85  934.69  9.47
2076.0  9694.09  973.18  10.04
2086.0  9631.47  982.24  10.20
2096.0  9454.93  1000.64  10.58
2106.0  9275.54  1004.22  10.83
2116.0  9245.65  1031.51  11.16
2126.0  9116.69  1047.28  11.49
2136.0  8950.91  1062.44  11.87
2146.0  8709.13  1052.96  12.09
2156.0  8592.57  1054.22  12.27
2166.0  8395.01  1045.63  12.46
2176.0  8255.44  1033.30  12.52
2186.0  8187.20  1041.09  12.72
2196.0  8091.64  1026.92  12.69
2206.0  8077.06  1016.67  12.59
2216.0  7986.54  1019.18  12.76
2226.0  7886.79  958.87  12.16
2236.0  7842.97  924.66  11.79
2246.0  7681.01  886.44  11.54
2256.0  7615.03  822.89  10.81
2266.0  7496.34  775.83  10.35
2276.0  7423.15  731.62  9.86
2286.0  7373.24  692.01  9.39
2296.0  7304.50  643.93  8.82
2306.0  7091.77  565.13  7.97
2316.0  6866.32  531.69  7.74
2326.0  6820.17  539.25  7.91
2336.0  6804.10  498.17  7.32
2346.0  6710.15  473.89  7.06
2356.0  6576.40  443.02  6.74
2366.0  6513.23  424.73  6.52
2376.0  6382.23  388.87  6.09
2386.0  6319.78  369.28  5.84
2396.0  6176.70  353.98  5.73
2406.0  6106.95  326.55  5.35
2416.0  6007.12  324.89  5.41
2426.0  5872.93  280.78  4.78
2436.0  5761.33  277.21  4.81
2446.0  5671.88  246.77  4.35
2456.0  5562.07  253.07  4.55
2466.0  5450.81  204.79  3.76
2476.0  5276.94  241.67  4.58
2486.0  5161.10  171.87  3.33
2496.0  5184.29  178.15  3.44
2506.0  5307.81  198.48  3.74
