/*** Spectra Vista SIG Data ***/
name= RB.sig
comm= SIG file reprocesed for matching/overlap;Averaged Ref/Tar of files: RD4B1,RD4B3
data=
346.4  300.98  102.56  34.08
347.9  318.46  106.68  33.50
349.5  343.20  109.20  31.82
351.1  374.40  104.21  27.83
352.6  409.54  112.59  27.49
354.2  435.24  118.47  27.22
355.7  456.30  124.60  27.31
357.3  495.85  124.14  25.04
358.8  506.78  126.52  24.97
360.4  548.73  128.04  23.33
361.9  565.91  137.21  24.25
363.5  593.82  139.89  23.56
365.1  620.68  131.08  21.12
366.6  647.34  136.03  21.01
368.2  683.25  139.67  20.44
369.7  726.46  128.64  17.71
371.3  772.09  141.58  18.34
372.8  813.40  145.42  17.88
374.4  856.07  144.19  16.84
375.9  883.77  147.63  16.70
377.4  909.07  148.97  16.39
379.0  945.20  157.22  16.63
380.5  966.34  152.65  15.80
382.1  1004.70  151.89  15.12
383.6  1031.94  145.72  14.12
385.2  1082.13  146.85  13.57
386.7  1134.44  149.46  13.17
388.3  1183.47  154.90  13.09
389.8  1236.62  158.12  12.79
391.3  1283.89  159.31  12.41
392.9  1324.35  173.55  13.10
394.4  1356.15  178.05  13.13
395.9  1406.72  178.36  12.68
397.5  1480.96  192.51  13.00
399.0  1545.00  190.96  12.36
400.6  1586.22  193.01  12.17
402.1  1624.11  184.21  11.34
403.6  1645.88  185.09  11.25
405.1  1688.62  183.26  10.85
406.7  1751.68  186.82  10.67
408.2  1815.41  190.23  10.48
409.7  1871.52  194.43  10.39
411.3  1932.39  202.42  10.48
412.8  1975.40  208.56  10.56
414.3  2044.89  218.81  10.70
415.8  2106.25  223.50  10.61
417.4  2169.48  233.27  10.75
418.9  2222.61  236.81  10.65
420.4  2266.93  239.78  10.58
421.9  2296.58  241.52  10.52
423.5  2335.00  247.51  10.60
425.0  2376.73  246.78  10.38
426.5  2428.43  245.10  10.09
428.0  2489.68  252.46  10.14
429.5  2574.41  256.36  9.96
431.1  2658.69  261.62  9.84
432.6  2748.21  267.61  9.74
434.1  2843.23  277.20  9.75
435.6  2926.69  284.06  9.71
437.1  3007.88  289.77  9.63
438.6  3080.14  299.86  9.74
440.1  3160.11  306.50  9.70
441.6  3238.04  309.19  9.55
443.1  3312.90  316.31  9.55
444.7  3389.72  322.64  9.52
446.2  3441.68  332.59  9.66
447.7  3501.62  340.03  9.71
449.2  3564.00  345.17  9.68
450.7  3621.28  350.27  9.67
452.2  3682.41  356.06  9.67
453.7  3758.53  356.86  9.49
455.2  3840.40  365.82  9.53
456.7  3952.96  368.20  9.31
458.2  4072.55  381.65  9.37
459.7  4195.63  394.45  9.40
461.2  4317.19  403.13  9.34
462.7  4419.51  412.42  9.33
464.2  4528.34  423.83  9.36
465.7  4636.49  434.46  9.37
467.2  4730.69  443.14  9.37
468.7  4831.00  454.00  9.40
470.2  4904.47  459.35  9.37
471.7  4994.63  477.85  9.57
473.2  5152.65  495.01  9.61
474.6  5277.65  503.64  9.54
476.1  5315.90  497.36  9.36
477.6  5339.08  493.29  9.24
479.1  5368.13  496.76  9.25
480.6  5404.66  496.30  9.18
482.1  5475.21  498.09  9.10
483.6  5562.12  503.92  9.06
485.1  5668.27  511.98  9.03
486.6  5791.79  519.63  8.97
488.0  5923.94  533.98  9.01
489.5  6066.75  545.87  9.00
491.0  6201.68  559.86  9.03
492.5  6345.54  573.48  9.04
494.0  6492.59  589.91  9.09
495.4  6616.50  605.88  9.16
496.9  6746.80  623.91  9.25
498.4  6868.17  636.04  9.26
499.9  6989.37  655.40  9.38
501.4  7101.28  675.32  9.51
502.8  7211.42  693.40  9.62
504.3  7308.90  713.88  9.77
505.8  7405.94  732.46  9.89
507.2  7465.75  750.09  10.05
508.7  7504.76  760.55  10.13
510.2  7549.77  778.98  10.32
511.6  7573.93  795.47  10.50
513.1  7619.32  813.45  10.68
514.6  7684.06  835.30  10.87
516.0  7736.05  853.46  11.03
517.5  7828.25  877.46  11.21
519.0  7931.31  906.87  11.43
520.5  8033.54  929.23  11.57
521.9  8170.54  960.41  11.75
523.4  8322.71  990.50  11.90
524.8  8476.58  1026.45  12.11
526.3  8648.70  1062.04  12.28
527.8  8824.59  1096.53  12.43
529.2  8983.24  1129.72  12.58
530.7  9161.81  1163.28  12.70
532.1  9325.79  1196.34  12.83
533.6  9502.17  1232.95  12.98
535.0  9689.01  1267.50  13.08
536.5  9867.79  1300.06  13.17
538.0  10049.16  1331.79  13.25
539.4  10231.78  1369.10  13.38
540.9  10443.93  1414.23  13.54
542.3  10618.63  1453.40  13.69
543.8  10743.19  1480.85  13.78
545.2  10787.72  1497.99  13.89
546.6  10787.25  1502.68  13.93
548.1  10798.67  1514.21  14.02
549.5  10797.77  1529.84  14.17
551.0  10799.56  1538.60  14.25
552.4  10821.09  1556.42  14.38
553.9  10825.03  1566.97  14.48
555.3  10846.78  1585.47  14.62
556.8  10905.15  1610.54  14.77
558.2  10950.19  1628.78  14.87
559.6  11027.13  1660.10  15.05
561.1  11132.88  1694.55  15.22
562.5  11245.54  1730.38  15.39
564.0  11402.49  1774.88  15.57
565.4  11543.72  1819.70  15.76
566.8  11723.98  1873.95  15.98
568.3  11891.25  1926.63  16.20
569.7  12076.06  1986.36  16.45
571.1  12249.63  2041.61  16.67
572.6  12426.21  2106.33  16.95
574.0  12599.40  2169.09  17.22
575.4  12769.31  2230.21  17.47
576.9  12924.45  2298.34  17.78
578.3  13072.88  2364.87  18.09
579.7  13214.09  2431.91  18.40
581.1  13332.32  2501.04  18.76
582.6  13457.72  2570.20  19.10
584.0  13568.00  2643.22  19.48
585.4  13711.91  2734.18  19.94
586.8  13919.40  2831.90  20.34
588.3  14140.62  2941.85  20.80
589.7  14327.82  3042.00  21.23
591.1  14447.26  3134.51  21.70
592.5  14518.46  3206.87  22.09
594.0  14547.66  3278.05  22.53
595.4  14566.76  3343.69  22.95
596.8  14575.28  3410.98  23.40
598.2  14586.43  3479.81  23.86
599.6  14584.19  3547.98  24.33
601.0  14621.32  3624.36  24.79
602.4  14656.48  3697.99  25.23
603.9  14720.65  3780.55  25.68
605.3  14787.56  3862.12  26.12
606.7  14850.90  3935.16  26.50
608.1  14956.71  4025.15  26.91
609.5  15087.13  4120.97  27.31
610.9  15240.09  4211.97  27.64
612.3  15378.24  4302.72  27.98
613.7  15565.24  4414.88  28.36
615.1  15698.61  4508.79  28.72
616.5  15834.13  4597.36  29.03
617.9  16040.22  4706.87  29.34
619.3  16231.37  4821.74  29.71
620.7  16465.73  4941.25  30.01
622.1  16702.31  5056.33  30.27
623.5  16967.59  5181.85  30.54
624.9  17268.83  5304.87  30.72
626.3  17464.11  5358.45  30.68
627.7  17297.90  5316.51  30.74
629.1  17131.07  5361.76  31.30
630.5  17065.89  5462.15  32.01
631.9  17068.07  5588.29  32.74
633.3  17072.86  5674.24  33.24
634.7  17143.21  5756.47  33.58
636.1  17175.19  5814.29  33.85
637.5  17214.12  5844.96  33.95
638.9  17282.65  5840.26  33.79
640.2  17345.48  5825.52  33.59
641.6  17368.65  5804.14  33.42
643.0  17347.86  5730.77  33.03
644.4  17346.99  5604.78  32.31
645.8  17303.92  5439.49  31.44
647.2  17371.51  5292.72  30.47
648.5  17405.34  5146.61  29.57
649.9  17326.73  4958.46  28.62
651.3  17269.88  4825.11  27.94
652.7  17194.65  4712.91  27.41
654.1  17110.53  4675.48  27.33
655.5  17000.34  4649.49  27.35
656.8  16892.62  4601.41  27.24
658.2  16993.27  4588.82  27.00
659.6  17201.86  4587.45  26.67
660.9  17374.35  4556.57  26.23
662.3  17542.46  4515.41  25.74
663.7  17706.15  4461.24  25.20
665.0  17850.15  4409.91  24.71
666.4  17993.38  4350.13  24.18
667.8  18172.37  4307.70  23.70
669.1  18340.58  4269.14  23.28
670.5  18513.22  4259.02  23.01
671.9  18629.28  4254.22  22.84
673.2  18784.35  4264.24  22.70
674.6  18934.77  4292.49  22.67
676.0  19107.41  4357.23  22.80
677.3  19274.00  4448.52  23.08
678.7  19460.75  4573.85  23.50
680.0  19693.92  4768.20  24.21
681.4  19949.74  5017.76  25.15
682.8  20190.63  5336.24  26.43
684.1  20434.05  5735.81  28.07
685.5  20661.50  6218.64  30.10
686.8  20876.79  6796.49  32.56
688.2  21063.54  7432.43  35.29
689.5  21136.22  8088.51  38.27
690.9  21189.20  8786.88  41.47
692.2  21241.50  9479.37  44.63
693.6  21283.52  10176.81  47.82
694.9  21276.87  10819.96  50.85
696.2  21306.77  11459.52  53.78
697.6  21332.37  12061.40  56.54
698.9  21357.60  12618.15  59.08
700.3  21390.71  13142.28  61.44
701.6  21429.47  13642.22  63.66
703.0  21471.99  14119.93  65.76
704.3  21485.34  14529.65  67.63
705.6  21483.00  14880.19  69.26
707.0  21491.89  15220.14  70.82
708.3  21438.50  15485.91  72.23
709.6  21384.38  15727.67  73.55
711.0  21305.08  15910.61  74.68
712.3  21214.65  16066.52  75.73
713.6  21181.23  16258.20  76.76
714.9  21115.22  16388.56  77.61
716.3  21103.70  16554.94  78.45
717.6  21104.62  16714.53  79.20
718.9  21048.57  16825.58  79.94
720.2  20942.08  16882.49  80.62
721.6  20841.80  16944.93  81.30
722.9  20742.62  16968.79  81.81
724.2  20595.93  16949.56  82.30
725.5  20483.80  16959.24  82.79
726.8  20382.67  16957.05  83.19
728.1  20319.64  16978.59  83.56
729.5  20266.07  16982.08  83.80
730.8  20224.65  16984.00  83.98
732.1  20162.40  16961.89  84.13
733.4  20118.51  16957.76  84.29
734.7  20079.83  16962.36  84.47
736.0  20072.78  16979.79  84.59
737.3  20029.99  16961.73  84.68
738.6  20078.49  17032.91  84.83
739.9  20158.75  17135.61  85.00
741.2  20237.49  17224.12  85.11
742.5  20374.08  17374.94  85.28
743.8  20609.53  17603.36  85.41
745.1  20972.39  17923.10  85.46
746.4  21401.61  18306.75  85.54
747.7  21849.92  18707.62  85.62
749.0  22279.29  19115.45  85.80
750.3  22537.39  19359.78  85.90
751.6  22489.95  19361.02  86.09
752.9  22268.69  19203.13  86.23
754.2  22020.08  19006.60  86.31
755.4  21752.37  18786.17  86.36
756.7  21671.76  18733.98  86.44
758.0  21695.15  18757.37  86.46
759.3  21840.20  18893.95  86.51
760.6  22048.18  19088.00  86.57
761.9  22241.80  19275.51  86.66
763.1  22361.42  19401.58  86.76
764.4  22495.96  19549.99  86.90
765.7  22607.00  19663.80  86.98
767.0  22707.99  19750.27  86.97
768.2  22787.52  19836.77  87.05
769.5  22847.70  19903.52  87.11
770.8  22968.83  20030.65  87.21
772.0  23007.05  20073.21  87.25
773.3  23073.57  20164.49  87.39
774.6  23142.26  20247.97  87.49
775.8  23217.35  20337.98  87.60
777.1  23250.39  20395.85  87.72
778.4  23228.21  20391.01  87.79
779.6  23232.20  20431.28  87.94
780.9  23206.00  20424.00  88.01
782.1  23123.66  20385.31  88.16
783.4  23129.60  20422.28  88.29
784.6  23156.94  20455.84  88.34
785.9  23323.57  20624.83  88.43
787.1  23657.54  20942.73  88.52
788.4  23905.77  21210.92  88.73
789.6  23910.81  21270.86  88.96
790.9  23703.38  21143.23  89.20
792.1  23443.52  20949.84  89.36
793.4  23200.49  20761.11  89.49
794.6  23038.97  20648.64  89.62
795.8  22887.63  20541.40  89.75
797.1  22746.90  20430.12  89.81
798.3  22633.05  20367.03  89.99
799.5  22585.37  20335.88  90.04
800.8  22510.70  20297.13  90.17
802.0  22435.02  20259.54  90.30
803.2  22355.92  20197.17  90.34
804.5  22286.88  20168.54  90.50
805.7  22221.30  20126.03  90.57
806.9  22163.45  20079.24  90.60
808.1  22106.40  20042.53  90.66
809.4  22068.13  20027.62  90.75
810.6  22012.90  20007.26  90.89
811.8  21998.30  20002.86  90.93
813.0  22023.85  20014.98  90.88
814.2  22034.44  20042.57  90.96
815.4  22094.68  20088.47  90.92
816.6  22117.02  20115.43  90.95
817.9  22159.15  20149.17  90.93
819.1  22110.24  20102.71  90.92
820.3  22040.68  20026.05  90.86
821.5  21976.08  19952.72  90.79
822.7  21945.91  19903.22  90.69
823.9  21946.82  19885.58  90.61
825.1  21950.55  19861.63  90.48
826.3  21976.62  19844.37  90.30
827.5  21980.34  19825.28  90.20
828.7  22017.96  19808.64  89.97
829.9  22041.74  19774.24  89.71
831.0  22083.57  19775.96  89.55
832.2  22125.60  19776.91  89.38
833.4  22169.16  19779.64  89.22
834.6  22207.03  19791.57  89.12
835.8  22252.39  19791.14  88.94
837.0  22278.53  19804.20  88.89
838.1  22362.84  19851.96  88.77
839.3  22423.92  19881.29  88.66
840.5  22463.55  19922.13  88.69
841.7  22539.94  19950.03  88.51
842.9  22590.38  19984.64  88.47
844.0  22640.76  20016.87  88.41
845.2  22733.43  20080.50  88.33
846.4  22779.40  20111.42  88.29
847.5  22894.92  20183.14  88.16
848.7  22986.81  20269.07  88.18
849.9  23090.42  20370.43  88.22
851.0  23115.33  20402.05  88.26
852.2  23147.70  20418.28  88.21
853.3  23146.04  20408.93  88.17
854.5  23138.69  20394.63  88.14
855.6  23131.08  20381.40  88.11
856.8  23140.08  20376.65  88.06
857.9  23125.66  20374.62  88.10
859.1  23200.40  20419.08  88.01
860.2  23210.88  20413.77  87.95
861.4  23238.19  20430.77  87.92
862.5  23256.69  20431.53  87.85
863.7  23299.75  20464.71  87.83
864.8  23308.25  20463.38  87.79
865.9  23278.88  20417.94  87.71
867.1  23298.62  20435.68  87.71
868.2  23308.26  20411.15  87.57
869.3  23327.36  20429.87  87.58
870.5  23292.12  20370.32  87.46
871.6  23289.32  20355.84  87.40
872.7  23336.56  20388.82  87.37
873.9  23363.45  20415.07  87.38
875.0  23323.98  20366.37  87.32
876.1  23338.58  20337.68  87.14
877.2  23352.60  20328.47  87.05
878.3  23349.40  20315.53  87.01
879.4  23378.40  20311.61  86.88
880.5  23403.42  20292.62  86.71
881.7  23389.60  20242.82  86.55
882.8  23432.80  20269.38  86.50
883.9  23448.21  20275.37  86.47
885.0  23450.02  20243.50  86.33
886.1  23424.56  20262.51  86.50
887.2  23365.96  20161.90  86.29
888.3  23308.56  20105.44  86.26
889.4  23276.53  20030.24  86.05
890.5  23201.38  19982.10  86.12
891.6  23192.34  19936.12  85.96
892.7  23215.89  19909.93  85.76
893.8  23203.09  19890.70  85.72
894.9  23213.03  19848.62  85.51
896.0  23219.08  19828.91  85.40
897.0  23233.59  19818.49  85.30
898.1  23265.19  19812.10  85.16
899.2  23265.94  19782.12  85.03
900.3  23202.69  19728.39  85.03
901.4  23182.22  19652.57  84.77
902.4  23192.03  19623.74  84.61
903.5  23179.29  19596.86  84.54
904.6  23181.33  19581.93  84.47
905.7  23181.52  19558.45  84.37
906.7  23201.08  19508.95  84.09
907.8  23205.26  19528.83  84.16
908.9  23171.38  19460.27  83.98
909.9  23142.01  19407.85  83.86
911.0  23135.89  19352.16  83.65
912.1  23112.25  19278.57  83.41
913.1  23069.80  19212.65  83.28
914.2  23011.95  19094.56  82.98
915.2  23006.97  19078.90  82.93
916.3  23024.55  19036.71  82.68
917.3  23013.50  18984.62  82.49
918.4  22970.06  18894.98  82.26
919.4  22959.52  18814.41  81.95
920.5  22948.10  18755.15  81.73
921.5  22992.94  18728.11  81.45
922.6  22908.19  18623.57  81.30
923.6  22998.44  18579.68  80.79
924.7  22983.50  18502.90  80.51
925.7  22963.47  18414.22  80.19
926.7  22993.12  18348.42  79.80
927.8  23046.06  18317.16  79.48
928.8  23129.73  18273.27  79.00
929.9  23214.82  18248.53  78.61
930.9  23325.95  18238.32  78.19
931.9  23422.51  18225.97  77.81
932.9  23590.71  18295.60  77.55
934.0  23628.34  18225.40  77.13
935.0  23647.48  18133.27  76.68
936.0  23654.47  17964.13  75.94
937.0  23611.58  17880.57  75.73
938.1  23603.32  17793.28  75.38
939.1  23584.34  17641.70  74.80
940.1  23673.00  17581.15  74.27
941.1  23749.98  17548.29  73.89
942.1  23913.97  17529.00  73.30
943.1  24007.97  17453.66  72.70
944.1  24139.96  17468.20  72.36
945.2  24191.16  17350.46  71.72
946.2  24274.20  17303.29  71.28
947.2  24295.69  17200.25  70.80
948.2  24407.51  17135.57  70.21
949.2  24434.31  17044.63  69.76
950.2  24503.20  16933.06  69.11
951.2  24568.74  16818.99  68.46
952.2  24624.11  16764.74  68.08
953.2  24717.31  16680.30  67.48
954.2  24858.68  16588.53  66.73
955.2  24833.48  16459.39  66.28
956.2  24781.87  16325.04  65.87
957.2  24889.44  16284.30  65.43
958.2  24934.17  16199.87  64.97
959.2  25016.63  16183.80  64.69
960.1  25036.42  16117.94  64.38
961.1  25110.32  16108.90  64.15
962.1  25088.91  16063.32  64.03
963.1  25119.92  15973.13  63.59
964.1  25214.63  16010.36  63.50
965.1  25330.49  16025.06  63.26
966.1  25308.67  16001.61  63.23
967.0  25429.11  15985.75  62.86
968.0  25412.72  15973.12  62.85
969.0  25476.70  15990.08  62.76
970.0  25548.92  15984.91  62.57
971.0  25553.38  15949.50  62.42
971.9  25577.75  15965.43  62.42
972.9  25632.47  15942.54  62.20
973.9  25687.84  15954.45  62.11
974.9  25707.07  15917.11  61.92
975.8  25785.50  15956.65  61.88
976.8  25887.84  15946.67  61.60
977.8  25820.50  15992.47  61.94
978.8  25860.98  15901.35  61.49
979.7  25944.03  15958.78  61.51
981.4  26534.70  17055.29  64.28
985.3  26407.57  17143.94  64.92
989.3  26474.11  17363.79  65.59
993.3  26619.54  17640.25  66.27
997.2  26659.40  17854.70  66.97
1001.2  26636.74  18044.91  67.74
1005.2  26603.49  18214.38  68.47
1009.1  26619.65  18442.81  69.28
1013.1  26716.01  18724.05  70.09
1017.1  26794.94  19002.15  70.92
1021.0  26801.46  19260.05  71.86
1025.0  26791.13  19521.45  72.87
1029.0  26701.37  19707.90  73.81
1032.9  26612.69  19870.24  74.66
1036.9  26609.51  20094.55  75.52
1040.9  26674.31  20372.45  76.37
1044.8  26787.82  20680.16  77.20
1048.8  26888.29  20964.42  77.97
1052.7  26960.57  21199.50  78.63
1056.7  26977.24  21350.86  79.14
1060.7  26985.60  21478.39  79.59
1064.6  27010.97  21580.12  79.89
1068.6  26982.88  21585.39  80.00
1072.5  26926.21  21566.05  80.09
1076.5  26904.28  21544.10  80.08
1080.4  26907.72  21495.90  79.89
1084.4  26967.74  21455.68  79.56
1088.3  27046.80  21401.01  79.13
1092.3  27030.17  21266.66  78.68
1096.2  27021.53  21100.43  78.09
1100.2  27064.25  20937.36  77.36
1104.1  26999.93  20711.55  76.71
1108.1  26976.31  20517.20  76.06
1112.0  26929.62  20273.32  75.28
1116.0  26827.19  19969.73  74.44
1119.9  26743.36  19657.46  73.50
1123.9  26789.11  19356.71  72.26
1127.8  26776.32  18902.40  70.59
1131.8  26765.25  18305.15  68.39
1135.7  26806.82  17610.49  65.69
1139.6  26802.37  16849.10  62.86
1143.6  26782.94  16115.74  60.17
1147.5  26783.56  15475.11  57.78
1151.4  26689.51  14905.23  55.85
1155.4  26684.50  14537.16  54.48
1159.3  26717.33  14282.21  53.46
1163.2  26640.39  14046.37  52.73
1167.2  26631.42  13924.59  52.29
1171.1  26649.11  13843.44  51.95
1175.0  26624.79  13745.53  51.63
1179.0  26612.16  13668.80  51.36
1182.9  26679.08  13618.11  51.04
1186.8  26688.13  13547.94  50.76
1190.7  26563.51  13441.88  50.60
1194.7  26418.25  13334.30  50.47
1198.6  26292.42  13250.17  50.40
1202.5  26222.77  13206.37  50.36
1206.4  26156.30  13183.01  50.40
1210.3  26101.80  13180.56  50.50
1214.2  26061.58  13202.56  50.66
1218.2  25980.18  13220.90  50.89
1222.1  25898.70  13252.29  51.17
1226.0  25846.71  13305.64  51.48
1229.9  25808.88  13349.64  51.72
1233.8  25765.00  13389.73  51.97
1237.7  25743.41  13444.16  52.22
1241.6  25703.07  13481.16  52.45
1245.5  25624.12  13485.75  52.63
1249.4  25550.35  13480.50  52.76
1253.3  25491.83  13485.20  52.90
1257.2  25468.72  13509.85  53.04
1261.1  25410.02  13509.83  53.17
1265.0  25340.06  13485.54  53.22
1268.9  25238.59  13424.05  53.19
1272.8  25273.80  13416.38  53.08
1276.7  25394.86  13433.12  52.90
1280.6  25450.19  13407.13  52.68
1284.5  25408.33  13318.68  52.42
1288.4  25396.88  13224.24  52.07
1292.3  25335.75  13084.50  51.64
1296.2  25253.77  12914.57  51.14
1300.1  25154.45  12717.82  50.56
1303.9  25021.28  12485.54  49.90
1307.8  24888.83  12228.84  49.13
1311.7  24744.05  11950.99  48.30
1315.6  24606.58  11660.00  47.39
1319.5  24454.91  11341.80  46.38
1323.3  24310.87  11020.63  45.33
1327.2  24198.13  10702.69  44.23
1331.1  24066.72  10378.15  43.12
1335.0  23889.51  10046.27  42.05
1338.8  23760.57  9744.23  41.01
1342.7  23672.67  9488.62  40.08
1346.5  23478.13  9221.89  39.28
1350.4  23310.26  8977.35  38.51
1354.3  23083.45  8724.48  37.80
1358.1  22838.31  8456.14  37.03
1362.0  22679.75  8205.84  36.18
1365.8  22617.02  7982.77  35.30
1369.7  22674.59  7774.33  34.29
1373.5  22638.01  7499.69  33.13
1377.4  22496.49  7141.70  31.75
1381.2  22378.35  6719.71  30.03
1385.1  22350.32  6262.11  28.02
1389.0  22288.46  5783.68  25.95
1392.8  22173.23  5307.13  23.93
1396.6  22085.45  4865.52  22.03
1400.5  21959.65  4463.20  20.32
1404.3  21857.78  4128.86  18.89
1408.2  21838.81  3864.60  17.70
1412.0  21801.98  3649.37  16.74
1415.8  21812.41  3499.35  16.04
1419.6  21792.97  3367.06  15.45
1423.5  21771.98  3262.86  14.99
1427.3  21755.09  3189.04  14.66
1431.1  21750.38  3134.11  14.41
1434.9  21698.88  3079.63  14.19
1438.8  21663.77  3048.86  14.07
1442.6  21637.50  3030.40  14.01
1446.4  21563.28  3001.11  13.92
1450.2  21516.17  2981.66  13.86
1454.0  21457.08  2966.28  13.82
1457.8  21441.21  2967.40  13.84
1461.6  21431.12  2974.90  13.88
1465.4  21362.81  2981.73  13.96
1469.2  21250.78  2996.18  14.10
1473.0  21169.27  3022.72  14.28
1476.8  21139.84  3062.77  14.49
1480.7  21105.82  3114.26  14.76
1484.4  21030.72  3173.76  15.09
