/*** Spectra Vista SIG Data ***/
name= GT1.sig
comm= Averaged Ref/Tar of files: GD5T1,GD5T2,GD5T3
data=
346.4  366.28  73.04  19.94
347.9  400.03  74.05  18.51
349.5  432.12  73.63  17.04
351.1  468.00  76.54  16.36
352.6  496.51  79.28  15.97
354.2  520.33  79.41  15.26
355.7  575.84  85.31  14.81
357.3  598.14  92.00  15.38
358.8  616.87  89.94  14.58
360.4  668.33  94.27  14.10
361.9  686.05  94.72  13.81
363.5  715.01  101.57  14.21
365.1  743.78  95.70  12.87
366.6  778.54  100.35  12.89
368.2  824.27  98.49  11.95
369.7  873.39  94.90  10.87
371.3  928.49  95.70  10.31
372.8  977.74  107.12  10.96
374.4  1016.27  106.36  10.47
375.9  1052.58  109.01  10.36
377.4  1084.71  107.55  9.92
379.0  1129.79  104.39  9.24
380.5  1157.14  103.00  8.90
382.1  1186.43  104.01  8.77
383.6  1234.64  107.35  8.70
385.2  1293.88  105.97  8.19
386.7  1345.63  107.94  8.02
388.3  1410.38  114.14  8.09
389.8  1464.46  116.75  7.97
391.3  1527.57  128.48  8.41
392.9  1567.60  129.73  8.28
394.4  1609.87  135.32  8.41
395.9  1662.63  140.25  8.44
397.5  1749.05  150.73  8.62
399.0  1827.74  148.73  8.14
400.6  1876.29  150.56  8.02
402.1  1904.04  148.61  7.80
403.6  1943.17  148.65  7.65
405.1  1994.81  145.63  7.30
406.7  2061.92  156.20  7.58
408.2  2135.06  163.65  7.66
409.7  2198.56  168.45  7.66
411.3  2272.05  173.81  7.65
412.8  2335.64  183.28  7.85
414.3  2399.77  192.21  8.01
415.8  2475.00  199.33  8.05
417.4  2547.71  202.40  7.94
418.9  2612.23  214.21  8.20
420.4  2658.25  220.67  8.30
421.9  2705.56  221.67  8.19
423.5  2743.63  224.16  8.17
425.0  2788.02  227.15  8.15
426.5  2844.45  229.33  8.06
428.0  2917.63  236.45  8.10
429.5  3009.90  240.69  8.00
431.1  3112.45  248.71  7.99
432.6  3227.88  259.66  8.04
434.1  3329.29  267.45  8.03
435.6  3423.98  275.29  8.04
437.1  3517.80  282.36  8.03
438.6  3607.74  293.44  8.13
440.1  3694.39  301.87  8.17
441.6  3790.73  311.06  8.21
443.1  3873.83  318.87  8.23
444.7  3959.99  331.27  8.37
446.2  4024.76  343.82  8.54
447.7  4101.41  357.57  8.72
449.2  4174.20  370.08  8.87
450.7  4238.00  378.84  8.94
452.2  4313.18  386.19  8.95
453.7  4393.64  397.09  9.04
455.2  4491.99  409.50  9.12
456.7  4618.24  427.56  9.26
458.2  4761.06  446.66  9.38
459.7  4899.13  463.17  9.45
461.2  5044.37  479.84  9.51
462.7  5165.05  499.53  9.67
464.2  5287.79  513.38  9.71
465.7  5408.14  529.71  9.79
467.2  5518.98  543.88  9.85
468.7  5631.00  557.07  9.89
470.2  5705.20  576.29  10.10
471.7  5821.13  601.03  10.33
473.2  6011.22  624.89  10.40
474.6  6153.75  632.79  10.28
476.1  6204.18  629.50  10.15
477.6  6220.94  633.45  10.18
479.1  6250.52  633.46  10.13
480.6  6293.37  647.74  10.29
482.1  6374.96  659.41  10.34
483.6  6474.12  676.69  10.45
485.1  6599.29  698.06  10.58
486.6  6739.10  720.73  10.69
488.0  6898.13  748.15  10.85
489.5  7058.36  781.01  11.07
491.0  7224.81  813.13  11.25
492.5  7392.87  853.85  11.55
494.0  7557.79  896.63  11.86
495.4  7702.20  938.96  12.19
496.9  7844.83  984.63  12.55
498.4  7990.29  1033.10  12.93
499.9  8131.50  1087.98  13.38
501.4  8263.45  1144.72  13.85
502.8  8392.79  1203.88  14.34
504.3  8499.60  1267.92  14.92
505.8  8611.18  1337.73  15.53
507.2  8674.01  1397.45  16.11
508.7  8728.20  1462.91  16.76
510.2  8764.92  1530.60  17.46
511.6  8789.76  1597.47  18.17
513.1  8840.43  1679.01  18.99
514.6  8904.34  1752.06  19.68
516.0  8958.85  1828.61  20.41
517.5  9056.55  1917.07  21.17
519.0  9171.31  2009.35  21.91
520.5  9287.32  2103.35  22.65
521.9  9437.16  2204.40  23.36
523.4  9612.27  2307.01  24.00
524.8  9785.79  2415.12  24.68
526.3  9984.58  2521.16  25.25
527.8  10184.06  2626.93  25.79
529.2  10366.76  2731.15  26.35
530.7  10567.61  2835.93  26.84
532.1  10746.40  2934.20  27.30
533.6  10959.02  3036.31  27.71
535.0  11168.56  3140.91  28.12
536.5  11376.00  3242.87  28.51
538.0  11592.92  3343.40  28.84
539.4  11785.91  3443.32  29.22
540.9  12037.93  3560.34  29.58
542.3  12246.63  3675.21  30.01
543.8  12400.56  3762.23  30.34
545.2  12445.48  3811.29  30.62
546.6  12442.01  3851.40  30.95
548.1  12455.19  3892.40  31.25
549.5  12460.55  3934.00  31.57
551.0  12456.77  3969.66  31.87
552.4  12484.13  4015.58  32.17
553.9  12491.52  4044.21  32.38
555.3  12509.64  4077.45  32.59
556.8  12569.08  4120.45  32.78
558.2  12630.94  4160.03  32.94
559.6  12713.51  4201.76  33.05
561.1  12831.00  4254.25  33.16
562.5  12959.42  4305.81  33.23
564.0  13129.35  4365.51  33.25
565.4  13288.41  4421.87  33.28
566.8  13487.87  4483.92  33.24
568.3  13678.39  4537.19  33.17
569.7  13879.32  4598.75  33.13
571.1  14074.77  4644.04  33.00
572.6  14269.77  4689.58  32.86
574.0  14463.08  4733.08  32.73
575.4  14650.03  4772.48  32.58
576.9  14818.07  4806.88  32.44
578.3  14977.46  4834.83  32.28
579.7  15131.24  4864.80  32.15
581.1  15254.19  4884.59  32.02
582.6  15387.18  4908.47  31.90
584.0  15508.86  4940.73  31.86
585.4  15681.05  4984.94  31.79
586.8  15909.04  5049.29  31.74
588.3  16162.38  5129.28  31.74
589.7  16371.81  5191.37  31.71
591.1  16519.39  5235.56  31.69
592.5  16589.78  5258.05  31.69
594.0  16627.80  5265.25  31.67
595.4  16637.76  5263.68  31.64
596.8  16651.64  5272.98  31.67
598.2  16659.51  5272.75  31.65
599.6  16659.36  5267.46  31.62
601.0  16705.59  5281.77  31.62
602.4  16752.94  5285.63  31.55
603.9  16822.23  5294.34  31.47
605.3  16905.11  5304.03  31.38
606.7  16973.10  5302.32  31.24
608.1  17114.04  5315.45  31.06
609.5  17255.15  5326.33  30.87
610.9  17434.91  5345.86  30.66
612.3  17598.49  5352.95  30.42
613.7  17818.60  5378.76  30.19
615.1  17967.42  5384.66  29.97
616.5  18122.06  5391.73  29.75
617.9  18356.64  5423.07  29.54
619.3  18578.68  5453.36  29.35
620.7  18848.67  5493.15  29.14
622.1  19119.58  5522.83  28.89
623.5  19414.06  5557.18  28.62
624.9  19741.18  5620.79  28.47
626.3  19952.52  5675.84  28.45
627.7  19741.37  5639.03  28.56
629.1  19544.02  5626.43  28.79
630.5  19457.12  5644.93  29.01
631.9  19461.81  5686.66  29.22
633.3  19457.49  5714.98  29.37
634.7  19533.17  5748.75  29.43
636.1  19566.68  5779.76  29.54
637.5  19597.55  5814.07  29.67
638.9  19677.50  5847.22  29.72
640.2  19731.43  5834.90  29.57
641.6  19754.28  5753.90  29.13
643.0  19715.36  5615.40  28.48
644.4  19707.26  5453.89  27.67
645.8  19650.11  5275.56  26.85
647.2  19716.78  5122.12  25.98
648.5  19765.84  4955.66  25.07
649.9  19671.60  4731.66  24.05
651.3  19608.23  4528.12  23.09
652.7  19503.68  4352.68  22.32
654.1  19390.95  4306.97  22.21
655.5  19238.75  4269.95  22.19
656.8  19118.09  4215.48  22.05
658.2  19225.93  4192.24  21.81
659.6  19449.31  4156.72  21.37
660.9  19643.18  4093.42  20.84
662.3  19825.21  4027.37  20.31
663.7  20008.80  3955.84  19.77
665.0  20165.89  3874.56  19.21
666.4  20328.89  3803.46  18.71
667.8  20535.62  3745.58  18.24
669.1  20711.76  3694.36  17.84
670.5  20914.18  3663.70  17.52
671.9  21055.86  3628.21  17.23
673.2  21237.33  3613.11  17.01
674.6  21400.77  3613.24  16.88
676.0  21596.49  3628.81  16.80
677.3  21793.24  3664.57  16.82
678.7  21992.69  3730.37  16.96
680.0  22269.19  3833.78  17.22
681.4  22542.00  3978.49  17.65
682.8  22829.63  4159.91  18.22
684.1  23112.18  4398.89  19.03
685.5  23364.31  4688.72  20.07
686.8  23617.23  5035.46  21.32
688.2  23841.32  5443.44  22.83
689.5  23927.84  5862.79  24.50
690.9  23997.39  6329.13  26.37
692.2  24047.78  6809.18  28.32
693.6  24110.83  7310.70  30.32
694.9  24095.99  7798.35  32.36
696.2  24121.97  8297.60  34.40
697.6  24149.95  8792.63  36.41
698.9  24174.48  9277.66  38.38
700.3  24215.57  9747.64  40.25
701.6  24264.40  10198.52  42.03
703.0  24323.35  10635.62  43.73
704.3  24329.34  11025.32  45.32
705.6  24327.41  11371.67  46.74
707.0  24334.75  11709.91  48.12
708.3  24282.08  11991.11  49.38
709.6  24223.21  12246.90  50.56
711.0  24124.28  12464.38  51.67
712.3  24015.02  12663.17  52.73
713.6  23977.17  12880.73  53.72
714.9  23907.38  13061.47  54.63
716.3  23880.58  13261.31  55.53
717.6  23876.83  13468.34  56.41
718.9  23805.06  13624.21  57.23
720.2  23675.16  13742.86  58.05
721.6  23576.15  13858.45  58.78
722.9  23446.45  13938.14  59.45
724.2  23274.82  13960.91  59.98
725.5  23133.68  14010.14  60.56
726.8  23009.81  14042.02  61.03
728.1  22933.91  14087.84  61.43
729.5  22856.87  14122.15  61.79
730.8  22796.53  14157.99  62.11
732.1  22719.29  14164.99  62.35
733.4  22660.56  14180.24  62.58
734.7  22602.67  14186.34  62.76
736.0  22569.89  14219.73  63.00
737.3  22520.76  14220.24  63.14
738.6  22554.56  14287.90  63.35
739.9  22633.16  14384.41  63.55
741.2  22698.59  14459.90  63.70
742.5  22841.25  14582.07  63.84
743.8  23091.34  14764.75  63.94
745.1  23491.07  15037.59  64.01
746.4  23957.57  15375.48  64.18
747.7  24466.55  15758.99  64.41
749.0  24948.63  16160.19  64.77
750.3  25229.30  16441.99  65.17
751.6  25175.69  16482.27  65.47
752.9  24925.64  16362.28  65.64
754.2  24630.59  16190.37  65.73
755.4  24314.44  15979.65  65.72
756.7  24210.69  15913.55  65.73
758.0  24235.24  15927.05  65.72
759.3  24394.18  16035.09  65.73
760.6  24621.52  16192.59  65.77
761.9  24823.09  16334.04  65.80
763.1  24955.30  16424.89  65.82
764.4  25125.21  16548.81  65.87
765.7  25257.38  16642.60  65.89
767.0  25349.99  16725.62  65.98
768.2  25431.84  16791.94  66.03
769.5  25509.93  16854.66  66.07
770.8  25646.87  16965.34  66.15
772.0  25674.66  16996.15  66.20
773.3  25762.96  17060.59  66.22
774.6  25839.71  17147.64  66.36
775.8  25921.43  17230.38  66.47
777.1  25948.26  17275.52  66.58
778.4  25918.05  17282.05  66.68
779.6  25945.86  17308.77  66.71
780.9  25904.00  17300.80  66.79
782.1  25811.51  17247.31  66.82
783.4  25819.04  17283.41  66.94
784.6  25849.06  17294.63  66.91
785.9  26028.56  17416.60  66.91
787.1  26416.14  17680.74  66.93
788.4  26716.91  17982.75  67.31
789.6  26732.54  18115.13  67.76
790.9  26499.75  18038.36  68.07
792.1  26215.36  17860.80  68.13
793.4  25939.41  17692.63  68.21
794.6  25766.06  17607.87  68.34
795.8  25608.38  17535.75  68.48
797.1  25427.85  17428.92  68.54
798.3  25301.10  17350.19  68.57
799.5  25235.55  17326.60  68.66
800.8  25155.70  17291.79  68.74
802.0  25074.70  17256.15  68.82
803.2  24986.56  17210.35  68.88
804.5  24925.76  17199.97  69.00
805.7  24855.66  17175.25  69.10
806.9  24776.64  17132.25  69.15
808.1  24708.89  17103.47  69.22
809.4  24677.19  17094.28  69.27
810.6  24617.78  17072.21  69.35
811.8  24606.91  17056.03  69.31
813.0  24601.75  17058.81  69.34
814.2  24620.30  17046.61  69.24
815.4  24684.78  17114.91  69.33
816.6  24715.54  17139.65  69.35
817.9  24752.29  17186.39  69.43
819.1  24717.85  17146.80  69.37
820.3  24615.89  17088.55  69.42
821.5  24558.22  17032.49  69.36
822.7  24525.20  16994.31  69.29
823.9  24512.51  16978.86  69.27
825.1  24512.73  16948.24  69.14
826.3  24527.23  16930.20  69.03
827.5  24554.23  16900.94  68.83
828.7  24585.24  16879.90  68.66
829.9  24620.63  16872.53  68.53
831.0  24677.45  16884.48  68.42
832.2  24735.00  16886.92  68.27
833.4  24800.15  16886.09  68.09
834.6  24827.34  16885.63  68.01
835.8  24886.58  16894.71  67.89
837.0  24941.18  16925.26  67.86
838.1  25036.55  16967.24  67.77
839.3  25073.20  16982.01  67.73
840.5  25138.07  17005.21  67.65
841.7  25214.76  17039.61  67.58
842.9  25311.78  17065.25  67.42
844.0  25352.29  17095.35  67.43
845.2  25454.19  17129.64  67.30
846.4  25527.43  17167.64  67.25
847.5  25656.16  17248.44  67.23
848.7  25745.00  17313.89  67.25
849.9  25879.71  17408.55  67.27
851.0  25913.04  17455.85  67.36
852.2  25966.07  17498.01  67.39
853.3  25941.98  17505.02  67.48
854.5  25934.86  17513.04  67.53
855.6  25916.94  17502.27  67.53
856.8  25944.85  17520.22  67.53
857.9  25943.54  17515.24  67.51
859.1  25996.60  17560.05  67.55
860.2  26027.46  17564.74  67.49
861.4  26023.97  17587.03  67.58
862.5  26059.24  17594.54  67.52
863.7  26115.12  17625.08  67.49
864.8  26101.25  17618.95  67.50
865.9  26082.46  17587.58  67.43
867.1  26099.25  17609.94  67.47
868.2  26099.69  17607.44  67.46
869.3  26128.19  17622.45  67.45
870.5  26099.47  17590.38  67.40
871.6  26087.08  17578.63  67.38
872.7  26136.21  17619.13  67.41
873.9  26148.82  17628.96  67.42
875.0  26142.73  17596.93  67.31
876.1  26142.29  17583.27  67.26
877.2  26184.05  17583.44  67.15
878.3  26169.01  17572.91  67.15
879.4  26191.11  17568.43  67.08
880.5  26214.48  17564.64  67.00
881.7  26220.35  17546.71  66.92
882.8  26271.44  17573.45  66.89
883.9  26272.50  17620.09  67.07
885.0  26275.91  17604.23  67.00
886.1  26278.81  17620.61  67.05
887.2  26194.66  17580.44  67.11
888.3  26154.69  17558.16  67.13
889.4  26083.75  17528.33  67.20
890.5  26060.47  17473.30  67.05
891.6  26043.45  17435.08  66.95
892.7  26025.13  17427.90  66.97
893.8  26046.70  17416.55  66.87
894.9  26070.72  17404.21  66.76
896.0  26059.51  17367.50  66.65
897.0  26054.12  17373.10  66.68
898.1  26079.30  17351.53  66.53
899.2  26095.96  17361.19  66.53
900.3  26052.56  17292.62  66.38
901.4  26029.33  17249.81  66.27
902.4  26018.83  17254.34  66.31
903.5  26017.27  17195.90  66.09
904.6  26012.16  17190.59  66.09
905.7  26050.43  17190.40  65.99
906.7  26024.14  17161.86  65.95
907.8  26076.86  17166.99  65.83
908.9  26057.48  17111.87  65.67
909.9  26017.06  17064.85  65.59
911.0  26009.49  17012.74  65.41
912.1  25979.15  16979.14  65.36
913.1  25944.88  16909.29  65.17
914.2  25856.17  16822.48  65.06
915.2  25844.13  16781.87  64.93
916.3  25883.78  16733.92  64.65
917.3  25847.25  16706.84  64.64
918.4  25819.06  16630.02  64.41
919.4  25792.96  16561.33  64.21
920.5  25804.34  16525.25  64.04
921.5  25824.68  16464.10  63.75
922.6  25820.42  16370.31  63.40
923.6  25802.74  16329.85  63.29
924.7  25837.63  16275.50  62.99
925.7  25830.51  16203.12  62.73
926.7  25889.20  16156.62  62.41
927.8  25949.67  16116.91  62.11
928.8  26061.51  16095.70  61.76
929.9  26114.55  16081.74  61.58
930.9  26214.58  16069.75  61.30
931.9  26363.30  16076.31  60.98
932.9  26568.63  16104.03  60.61
934.0  26604.58  16020.17  60.22
935.0  26610.78  15947.22  59.93
936.0  26639.41  15826.50  59.41
937.0  26632.91  15717.26  59.01
938.1  26589.57  15633.62  58.80
939.1  26594.73  15508.98  58.32
940.1  26647.30  15440.46  57.94
941.1  26757.94  15415.85  57.61
942.1  26950.86  15403.59  57.15
943.1  27064.46  15364.43  56.77
944.1  27200.04  15331.28  56.36
945.2  27250.86  15257.70  55.99
946.2  27341.46  15174.89  55.50
947.2  27385.31  15076.30  55.05
948.2  27528.14  15049.71  54.67
949.2  27562.84  14983.80  54.36
950.2  27601.23  14857.41  53.83
951.2  27696.06  14780.75  53.37
952.2  27776.58  14705.71  52.94
953.2  27874.44  14621.88  52.46
954.2  27994.28  14584.56  52.10
955.2  28013.52  14463.28  51.63
956.2  27975.49  14360.85  51.33
957.2  28074.45  14302.51  50.94
958.2  28163.05  14252.76  50.61
959.2  28188.45  14216.88  50.44
960.1  28244.69  14178.80  50.20
961.1  28322.00  14146.50  49.95
962.1  28304.06  14128.88  49.92
963.1  28357.97  14090.51  49.69
964.1  28464.51  14102.76  49.55
965.1  28543.56  14087.63  49.35
966.1  28584.14  14085.51  49.28
967.0  28655.80  14104.36  49.22
968.0  28697.14  14074.53  49.05
969.0  28718.80  14035.55  48.87
970.0  28760.47  14091.08  48.99
971.0  28834.42  14084.17  48.84
971.9  28848.78  14088.63  48.84
972.9  28890.31  14073.89  48.71
973.9  28948.56  14128.10  48.80
974.9  29046.70  14101.86  48.55
975.8  29063.68  14123.13  48.59
976.8  29052.58  14150.82  48.71
977.8  29165.54  14072.52  48.25
978.8  29197.88  14042.22  48.09
979.7  29189.32  14076.39  48.22
980.7  29306.81  14076.81  48.03
981.7  29477.75  14133.08  47.94
982.6  29574.16  14217.36  48.07
983.6  29987.80  14342.69  47.83
984.6  30188.75  14337.64  47.49
985.5  30563.82  14476.27  47.36
986.5  30946.12  14786.69  47.78
987.5  31666.80  15006.98  47.39
988.4  32276.75  15435.93  47.82
989.4  33081.94  15812.75  47.80
990.4  33865.04  16523.81  48.79
991.3  34680.98  16951.36  48.88
992.3  35996.38  17633.01  48.99
993.2  37249.57  17891.76  48.03
994.2  37192.84  18992.81  51.07
995.2  38468.72  19546.77  50.81
996.1  38815.33  19886.49  51.23
997.1  39248.66  19846.90  50.57
998.0  39056.40  20418.96  52.28
999.0  38843.24  20186.44  51.97
1000.0  39939.10  20700.83  51.83
1000.9  41119.71  20146.69  49.00
1001.9  38921.76  20596.10  52.92
1002.8  38260.04  20126.59  52.60
1003.8  38840.71  21180.55  54.53
1004.8  39018.78  20931.71  53.65
961.5  34611.80  13889.84  40.13
965.5  33947.81  13817.95  40.70
969.5  32673.62  13554.93  41.49
973.4  31329.21  13252.93  42.30
977.4  30182.73  13132.34  43.51
981.4  29653.05  13194.01  44.49
985.3  29580.67  13308.68  44.99
989.3  29694.74  13480.00  45.40
993.3  29811.28  13640.37  45.76
997.2  29873.76  13765.36  46.08
1001.2  29847.48  13913.21  46.61
1005.2  29766.32  14084.20  47.32
1009.1  29802.16  14282.43  47.92
1013.1  29912.80  14529.76  48.57
1017.1  29980.27  14772.38  49.27
1021.0  29997.45  14976.29  49.93
1025.0  29986.05  15193.74  50.67
1029.0  29874.56  15360.55  51.42
1032.9  29757.39  15512.08  52.13
1036.9  29719.10  15698.02  52.82
1040.9  29786.91  15924.17  53.46
1044.8  29914.06  16172.24  54.06
1048.8  30017.23  16389.71  54.60
1052.7  30081.05  16571.83  55.09
1056.7  30106.96  16691.84  55.44
1060.7  30124.55  16784.80  55.72
1064.6  30126.20  16865.68  55.98
1068.6  30068.46  16872.07  56.11
1072.5  30024.99  16847.73  56.11
1076.5  29992.38  16814.44  56.06
1080.4  29983.51  16771.90  55.94
1084.4  30049.89  16732.27  55.68
1088.3  30134.74  16682.16  55.36
1092.3  30115.74  16558.15  54.98
1096.2  30104.84  16417.92  54.54
1100.2  30142.18  16288.75  54.04
1104.1  30082.71  16096.24  53.51
1108.1  30052.27  15932.22  53.02
1112.0  29977.43  15746.33  52.53
1116.0  29868.35  15492.58  51.87
1119.9  29779.89  15232.11  51.15
1123.9  29822.35  14989.74  50.26
1127.8  29798.40  14593.28  48.97
1131.8  29786.58  14093.19  47.31
1135.7  29821.64  13524.92  45.35
1139.6  29831.38  12888.14  43.20
1143.6  29819.95  12277.40  41.17
1147.5  29803.64  11763.08  39.47
1151.4  29713.98  11324.74  38.11
1155.4  29731.43  11047.26  37.16
1159.3  29760.66  10877.70  36.55
1163.2  29674.15  10716.17  36.11
1167.2  29672.28  10630.62  35.83
1171.1  29681.80  10571.76  35.62
1175.0  29651.52  10511.22  35.45
1179.0  29638.87  10467.38  35.32
1182.9  29697.98  10441.36  35.16
1186.8  29706.14  10402.73  35.02
1190.7  29571.10  10328.13  34.93
1194.7  29411.94  10258.31  34.88
1198.6  29289.65  10214.82  34.88
1202.5  29196.66  10187.00  34.89
1206.4  29112.98  10176.48  34.96
1210.3  29056.59  10188.23  35.06
1214.2  29008.58  10209.53  35.19
1218.2  28915.95  10216.51  35.33
1222.1  28833.10  10243.11  35.53
1226.0  28785.60  10287.72  35.74
1229.9  28734.48  10332.88  35.96
1233.8  28673.70  10368.83  36.16
1237.7  28644.25  10410.11  36.34
1241.6  28596.57  10449.94  36.54
1245.5  28494.07  10457.70  36.70
1249.4  28422.55  10458.54  36.80
1253.3  28356.92  10462.76  36.90
1257.2  28323.43  10472.18  36.97
1261.1  28264.79  10461.63  37.01
1265.0  28184.91  10434.03  37.02
1268.9  28067.43  10385.78  37.00
1272.8  28106.70  10381.60  36.94
1276.7  28238.01  10390.75  36.80
1280.6  28297.17  10358.74  36.61
1284.5  28250.81  10271.83  36.36
1288.4  28234.52  10194.18  36.11
1292.3  28165.50  10074.17  35.77
1296.2  28076.33  9929.62  35.37
1300.1  27971.71  9770.24  34.93
1303.9  27830.79  9579.12  34.42
1307.8  27679.51  9362.38  33.82
1311.7  27513.83  9128.09  33.18
1315.6  27356.90  8881.00  32.46
1319.5  27190.78  8617.37  31.69
1323.3  27036.43  8354.68  30.90
1327.2  26898.46  8090.19  30.08
1331.1  26745.75  7826.63  29.26
1335.0  26551.82  7559.57  28.47
1338.8  26417.20  7321.41  27.71
1342.7  26306.22  7112.39  27.04
1346.5  26068.84  6884.04  26.41
1350.4  25867.11  6679.23  25.82
1354.3  25587.95  6470.17  25.29
1358.1  25293.52  6256.10  24.73
1362.0  25095.25  6054.05  24.12
1365.8  25024.00  5860.95  23.42
1369.7  25106.98  5686.49  22.65
