/*** Spectra Vista SIG Data ***/
name= S4.sig
comm= Averaged Ref/Tar of files: RD3S10,RD3S11,RD3S12
data=
346.4  598.78  208.09  34.75
347.9  627.50  221.72  35.33
349.5  677.04  216.32  31.95
351.1  739.44  221.52  29.96
352.6  790.63  230.86  29.20
354.2  841.03  233.44  27.76
355.7  912.59  251.44  27.55
357.3  974.37  264.69  27.16
358.8  992.58  260.96  26.29
360.4  1062.29  276.71  26.05
361.9  1117.88  287.89  25.75
363.5  1149.55  289.70  25.20
365.1  1196.29  282.03  23.58
366.6  1260.16  293.47  23.29
368.2  1349.72  293.22  21.72
369.7  1403.95  299.30  21.32
371.3  1488.21  309.50  20.80
372.8  1577.00  323.15  20.49
374.4  1638.71  329.30  20.10
375.9  1688.10  328.79  19.48
377.4  1740.09  332.84  19.13
379.0  1788.57  337.35  18.86
380.5  1855.73  340.58  18.35
382.1  1905.98  340.81  17.88
383.6  1973.16  336.42  17.05
385.2  2065.25  345.58  16.73
386.7  2149.76  352.88  16.41
388.3  2271.83  364.15  16.03
389.8  2363.45  372.41  15.76
391.3  2453.59  387.12  15.78
392.9  2526.36  391.66  15.50
394.4  2602.50  407.54  15.66
395.9  2690.98  422.85  15.71
397.5  2829.48  443.59  15.68
399.0  2963.31  447.02  15.09
400.6  3033.76  441.48  14.55
402.1  3072.78  434.30  14.13
403.6  3116.75  425.96  13.67
405.1  3199.00  423.49  13.24
406.7  3304.00  433.07  13.11
408.2  3412.53  438.07  12.84
409.7  3521.28  453.97  12.89
411.3  3642.17  464.36  12.75
412.8  3732.75  475.58  12.74
414.3  3845.02  491.13  12.77
415.8  3965.00  509.17  12.84
417.4  4085.95  516.96  12.65
418.9  4192.21  526.24  12.55
420.4  4267.16  533.40  12.50
421.9  4346.32  534.82  12.31
423.5  4413.15  538.61  12.20
425.0  4492.75  537.90  11.97
426.5  4594.55  543.95  11.84
428.0  4712.54  551.44  11.70
429.5  4856.53  555.64  11.44
431.1  5025.20  571.47  11.37
432.6  5198.44  581.24  11.18
434.1  5370.75  597.40  11.12
435.6  5520.56  611.46  11.08
437.1  5670.60  629.20  11.10
438.6  5806.58  639.28  11.01
440.1  5943.54  646.96  10.89
441.6  6091.61  662.16  10.87
443.1  6230.93  675.68  10.84
444.7  6356.12  687.74  10.82
446.2  6474.98  693.25  10.71
447.7  6582.53  711.98  10.82
449.2  6691.68  715.68  10.70
450.7  6814.08  716.91  10.52
452.2  6930.56  728.36  10.51
453.7  7066.33  728.86  10.31
455.2  7233.85  742.53  10.26
456.7  7443.04  757.97  10.18
458.2  7673.27  777.06  10.13
459.7  7920.50  796.25  10.05
461.2  8156.07  821.31  10.07
462.7  8366.46  840.11  10.04
464.2  8568.06  858.27  10.02
465.7  8788.58  879.30  10.00
467.2  8970.50  894.49  9.97
468.7  9176.00  915.33  9.98
470.2  9305.26  933.47  10.03
471.7  9490.50  956.34  10.08
473.2  9788.42  990.69  10.12
474.6  10042.30  1010.40  10.06
476.1  10127.24  1004.88  9.92
477.6  10169.21  991.80  9.75
479.1  10224.56  990.40  9.69
480.6  10293.47  988.86  9.61
482.1  10426.95  995.81  9.55
483.6  10590.11  1004.17  9.48
485.1  10796.39  1016.56  9.42
486.6  11041.55  1037.38  9.40
488.0  11290.50  1053.00  9.33
489.5  11568.25  1076.13  9.30
491.0  11840.59  1098.65  9.28
492.5  12119.22  1121.58  9.25
494.0  12409.65  1145.05  9.23
495.4  12660.45  1166.00  9.21
496.9  12912.44  1187.93  9.20
498.4  13155.80  1203.93  9.15
499.9  13408.52  1230.30  9.18
501.4  13645.90  1251.17  9.17
502.8  13864.50  1270.29  9.16
504.3  14081.40  1291.80  9.17
505.8  14291.05  1309.10  9.16
507.2  14436.37  1320.97  9.15
508.7  14548.87  1329.75  9.14
510.2  14651.50  1338.46  9.14
511.6  14718.08  1350.29  9.17
513.1  14838.45  1357.62  9.15
514.6  14986.45  1367.08  9.12
516.0  15112.04  1373.12  9.09
517.5  15305.31  1383.42  9.04
519.0  15537.89  1402.08  9.02
520.5  15768.60  1419.69  9.00
521.9  16045.99  1435.66  8.95
523.4  16363.11  1461.56  8.93
524.8  16675.79  1490.43  8.94
526.3  17027.53  1518.71  8.92
527.8  17380.80  1550.64  8.92
529.2  17706.86  1580.79  8.93
530.7  18056.71  1611.85  8.93
532.1  18377.28  1638.12  8.91
533.6  18738.23  1675.23  8.94
535.0  19114.67  1705.94  8.92
536.5  19476.07  1741.36  8.94
538.0  19846.24  1776.21  8.95
539.4  20198.95  1806.29  8.94
540.9  20626.19  1844.36  8.94
542.3  20984.92  1881.70  8.97
543.8  21250.33  1904.52  8.96
545.2  21329.19  1914.18  8.97
546.6  21331.64  1914.65  8.98
548.1  21362.06  1913.95  8.96
549.5  21376.46  1914.95  8.96
551.0  21386.66  1916.47  8.96
552.4  21443.54  1922.74  8.97
553.9  21463.89  1929.02  8.99
555.3  21521.57  1937.52  9.00
556.8  21650.10  1952.17  9.02
558.2  21773.81  1969.88  9.05
559.6  21936.94  1994.57  9.09
561.1  22168.25  2024.75  9.13
562.5  22423.78  2060.82  9.19
564.0  22757.43  2104.35  9.25
565.4  23059.14  2149.08  9.32
566.8  23449.52  2203.76  9.40
568.3  23818.66  2263.88  9.50
569.7  24198.01  2324.69  9.61
571.1  24579.14  2388.80  9.72
572.6  24952.86  2461.32  9.86
574.0  25317.60  2533.85  10.01
575.4  25678.69  2612.81  10.18
576.9  26008.29  2695.77  10.37
578.3  26306.64  2782.54  10.58
579.7  26593.28  2872.78  10.80
581.1  26823.10  2965.74  11.06
582.6  27065.10  3062.74  11.32
584.0  27286.52  3170.11  11.62
585.4  27587.92  3292.25  11.93
586.8  27978.96  3433.23  12.27
588.3  28419.30  3594.24  12.65
589.7  28786.68  3754.92  13.04
591.1  29016.81  3901.21  13.44
592.5  29127.43  4038.56  13.87
594.0  29186.34  4174.34  14.30
595.4  29194.56  4308.41  14.76
596.8  29193.45  4454.45  15.26
598.2  29177.08  4611.76  15.81
599.6  29153.88  4772.73  16.37
601.0  29216.28  4956.57  16.97
602.4  29261.60  5142.90  17.58
603.9  29364.60  5347.91  18.21
605.3  29484.10  5566.31  18.88
606.7  29584.80  5789.40  19.57
608.1  29785.49  6040.87  20.28
609.5  30013.28  6311.71  21.03
610.9  30296.78  6600.45  21.79
612.3  30557.28  6899.51  22.58
613.7  30914.00  7230.76  23.39
615.1  31159.08  7555.68  24.25
616.5  31406.64  7892.32  25.13
617.9  31801.61  8274.78  26.02
619.3  32170.62  8662.72  26.93
620.7  32635.92  9090.30  27.85
622.1  33083.75  9535.55  28.82
623.5  33564.04  10062.94  29.98
624.9  34116.86  10633.61  31.17
626.3  34490.69  11140.95  32.30
627.7  34145.81  11379.97  33.33
629.1  33851.16  11596.27  34.26
630.5  33743.57  11867.09  35.17
631.9  33775.53  12171.10  36.04
633.3  33808.52  12470.08  36.88
634.7  33992.91  12815.72  37.70
636.1  34075.08  13093.98  38.43
637.5  34196.58  13331.59  38.99
638.9  34374.61  13547.36  39.41
640.2  34545.58  13745.01  39.79
641.6  34634.34  13887.12  40.10
643.0  34657.83  13997.45  40.39
644.4  34696.37  14095.38  40.62
645.8  34653.86  14174.05  40.90
647.2  34834.41  14376.22  41.27
648.5  34958.93  14581.71  41.71
649.9  34861.32  14708.07  42.19
651.3  34789.65  14869.05  42.74
652.7  34680.00  14983.80  43.21
654.1  34452.30  14879.72  43.19
655.5  34172.42  14710.18  43.05
656.8  33904.63  14516.61  42.82
658.2  34070.04  14476.40  42.49
659.6  34442.82  14518.09  42.15
660.9  34748.70  14497.06  41.72
662.3  35067.95  14437.25  41.17
663.7  35364.00  14347.90  40.57
665.0  35617.00  14249.16  40.01
666.4  35877.31  14151.45  39.44
667.8  36209.10  14093.19  38.92
669.1  36482.80  14027.34  38.45
670.5  36799.72  14021.09  38.10
671.9  36995.40  14005.28  37.86
673.2  37270.13  14064.15  37.74
674.6  37530.47  14161.69  37.73
676.0  37841.78  14328.58  37.86
677.3  38141.57  14557.46  38.17
678.7  38483.75  14893.42  38.70
680.0  38922.37  15392.43  39.55
681.4  39389.45  16046.57  40.74
682.8  39844.35  16897.18  42.41
684.1  40287.78  17928.30  44.50
685.5  40705.56  19126.30  46.99
686.8  41091.84  20482.78  49.85
688.2  41433.89  21922.74  52.91
689.5  41549.57  23300.18  56.08
690.9  41633.44  24677.51  59.27
692.2  41697.60  26007.45  62.37
693.6  41771.65  27280.00  65.31
694.9  41721.88  28411.95  68.10
696.2  41751.90  29508.71  70.68
697.6  41766.04  30511.39  73.05
698.9  41796.48  31436.24  75.21
700.3  41844.24  32281.19  77.15
701.6  41918.48  33065.99  78.88
703.0  41979.40  33783.72  80.48
704.3  41981.71  34377.47  81.89
705.6  41967.18  34902.90  83.17
707.0  41980.75  35394.37  84.31
708.3  41872.71  35738.89  85.35
709.6  41753.67  36057.86  86.36
711.0  41589.99  36281.06  87.24
712.3  41418.66  36472.27  88.06
713.6  41354.04  36721.58  88.80
714.9  41240.96  36903.86  89.48
716.3  41218.54  37140.60  90.11
717.6  41221.95  37380.19  90.68
718.9  41134.56  37504.51  91.18
720.2  40936.00  37501.59  91.61
721.6  40765.66  37531.48  92.07
722.9  40572.15  37514.71  92.46
724.2  40305.71  37416.94  92.83
725.5  40134.57  37373.14  93.12
726.8  39960.91  37313.47  93.37
728.1  39855.98  37314.92  93.62
729.5  39766.23  37310.91  93.83
730.8  39707.44  37318.51  93.98
732.1  39612.07  37288.70  94.13
733.4  39556.45  37283.40  94.25
734.7  39507.57  37276.92  94.35
736.0  39511.29  37349.09  94.53
737.3  39463.58  37358.43  94.67
738.6  39569.04  37528.14  94.84
739.9  39770.92  37789.24  95.02
741.2  39928.98  37998.87  95.17
742.5  40206.42  38351.27  95.39
743.8  40696.43  38896.55  95.58
745.1  41398.16  39672.73  95.83
746.4  42245.84  40545.05  95.97
747.7  43136.62  41426.84  96.04
749.0  43980.49  42263.62  96.10
750.3  44484.44  42700.45  95.99
751.6  44396.66  42630.62  96.02
752.9  43969.12  42233.89  96.05
754.2  43470.53  41801.80  96.16
755.4  42928.75  41365.49  96.36
756.7  42746.48  41295.95  96.61
758.0  42774.71  41403.34  96.79
759.3  43048.01  41771.02  97.03
760.6  43418.76  42227.83  97.26
761.9  43775.94  42642.21  97.41
763.1  43996.61  42897.80  97.50
764.4  44239.34  43212.40  97.68
765.7  44424.25  43455.75  97.82
767.0  44583.75  43653.55  97.91
768.2  44688.00  43830.08  98.08
769.5  44782.92  43975.25  98.20
770.8  44990.42  44216.14  98.28
772.0  45014.41  44313.68  98.44
773.3  45100.97  44450.41  98.56
774.6  45226.84  44614.75  98.65
775.8  45313.45  44747.85  98.75
777.1  45344.81  44813.73  98.83
778.4  45245.88  44777.92  98.97
779.6  45226.44  44817.72  99.10
780.9  45132.00  44792.00  99.25
782.1  44952.26  44665.83  99.36
783.4  44936.32  44707.52  99.49
784.6  44935.72  44791.63  99.68
785.9  45255.62  45197.64  99.87
787.1  45836.93  45869.88  100.07
788.4  46288.94  46349.71  100.13
789.6  46219.23  46210.88  99.98
790.9  45788.99  45689.74  99.78
792.1  45296.16  45205.07  99.80
793.4  44771.54  44769.94  100.00
794.6  44415.30  44456.12  100.09
795.8  44134.47  44194.73  100.14
797.1  43801.05  43929.15  100.29
798.3  43569.08  43749.06  100.41
799.5  43411.48  43660.21  100.57
800.8  43273.13  43527.62  100.59
802.0  43071.08  43396.52  100.76
803.2  42890.28  43233.80  100.80
804.5  42742.15  43120.53  100.89
805.7  42601.95  42984.86  100.90
806.9  42426.40  42842.70  100.98
808.1  42305.67  42752.63  101.06
809.4  42221.44  42678.22  101.08
810.6  42105.70  42583.45  101.13
811.8  42062.43  42579.12  101.23
813.0  42071.08  42582.52  101.22
814.2  42081.20  42622.73  101.29
815.4  42185.03  42713.56  101.25
816.6  42225.34  42725.94  101.19
817.9  42273.21  42733.47  101.09
819.1  42166.58  42625.63  101.09
820.3  42039.03  42422.46  100.91
821.5  41905.07  42289.68  100.92
822.7  41849.58  42175.35  100.78
823.9  41838.35  42131.31  100.70
825.1  41851.34  42065.43  100.51
826.3  41890.94  42036.30  100.35
827.5  41937.05  42018.90  100.20
828.7  42011.28  41980.88  99.93
829.9  42039.57  41940.50  99.76
831.0  42140.75  41953.88  99.56
832.2  42235.78  41975.38  99.38
833.4  42305.18  41991.92  99.26
834.6  42417.19  42026.56  99.08
835.8  42496.65  42071.40  99.00
837.0  42597.61  42151.06  98.95
838.1  42745.68  42284.80  98.92
839.3  42856.00  42357.64  98.84
840.5  42989.60  42480.17  98.81
841.7  43156.80  42629.00  98.78
842.9  43298.86  42783.15  98.81
844.0  43430.88  42905.07  98.79
845.2  43568.90  43071.19  98.86
846.4  43732.15  43200.27  98.78
847.5  43960.00  43436.15  98.81
848.7  44164.79  43612.40  98.75
849.9  44393.85  43784.83  98.63
851.0  44478.08  43824.02  98.53
852.2  44569.63  43888.35  98.47
853.3  44562.81  43851.69  98.40
854.5  44594.90  43842.47  98.31
855.6  44615.97  43862.22  98.31
856.8  44687.86  43893.73  98.22
857.9  44681.40  43896.44  98.24
859.1  44832.20  44022.07  98.19
860.2  44876.88  44043.73  98.14
861.4  44954.55  44090.69  98.08
862.5  45021.69  44139.16  98.04
863.7  45150.84  44241.88  97.99
864.8  45213.35  44271.27  97.92
865.9  45167.77  44218.62  97.90
867.1  45241.43  44241.70  97.79
868.2  45295.54  44254.98  97.70
869.3  45314.27  44272.48  97.70
870.5  45282.48  44173.84  97.55
871.6  45315.83  44166.73  97.46
872.7  45413.27  44236.93  97.41
873.9  45478.16  44244.37  97.29
875.0  45456.71  44169.37  97.17
876.1  45452.45  44137.89  97.11
877.2  45498.99  44120.47  96.97
878.3  45519.98  44096.90  96.87
879.4  45563.53  44088.85  96.76
880.5  45631.08  44093.76  96.63
881.7  45596.20  44016.05  96.53
882.8  45693.96  44034.14  96.37
883.9  45722.91  43988.92  96.21
885.0  45675.63  43841.98  95.99
886.1  45712.78  43750.30  95.71
887.2  45537.58  43526.06  95.58
888.3  45475.07  43343.85  95.31
889.4  45347.40  43161.01  95.18
890.5  45259.13  43037.90  95.09
891.6  45193.70  42886.95  94.90
892.7  45201.31  42818.80  94.73
893.8  45270.56  42808.52  94.56
894.9  45248.28  42740.57  94.46
896.0  45235.90  42635.61  94.25
897.0  45257.72  42611.07  94.15
898.1  45230.13  42546.04  94.07
899.2  45252.30  42481.43  93.88
900.3  45165.90  42364.55  93.80
901.4  45101.16  42194.35  93.55
902.4  45077.20  42157.28  93.52
903.5  45018.01  42042.17  93.39
904.6  45035.56  41942.17  93.13
905.7  45038.93  41891.77  93.01
906.7  44985.82  41790.21  92.90
907.8  45025.57  41742.35  92.71
908.9  44904.57  41590.90  92.62
909.9  44897.74  41493.88  92.42
911.0  44830.08  41374.57  92.29
912.1  44749.25  41195.54  92.06
913.1  44707.00  41054.69  91.83
914.2  44554.62  40845.05  91.67
915.2  44505.45  40749.21  91.56
916.3  44491.35  40665.65  91.40
917.3  44461.10  40517.76  91.13
918.4  44383.35  40296.39  90.79
919.4  44330.69  40139.46  90.55
920.5  44315.70  40004.65  90.27
921.5  44285.78  39905.18  90.11
922.6  44268.10  39693.48  89.67
923.6  44262.16  39568.82  89.40
924.7  44333.00  39448.92  88.98
925.7  44276.22  39287.86  88.73
926.7  44252.98  39119.02  88.40
927.8  44374.33  38980.85  87.85
928.8  44502.63  38915.09  87.44
929.9  44598.23  38836.44  87.08
930.9  44802.27  38789.05  86.58
931.9  45011.35  38791.49  86.18
932.9  45355.12  38868.06  85.70
934.0  45370.16  38710.71  85.32
935.0  45397.97  38528.78  84.87
936.0  45413.73  38338.32  84.42
937.0  45319.95  38095.72  84.06
938.1  45295.44  37889.54  83.65
939.1  45257.91  37654.83  83.20
940.1  45342.90  37524.74  82.76
941.1  45568.46  37522.63  82.34
942.1  45803.34  37525.83  81.93
943.1  45999.43  37459.88  81.44
944.1  46171.28  37398.18  81.00
945.2  46338.18  37241.54  80.37
946.2  46411.22  37070.93  79.87
947.2  46518.25  36937.30  79.40
948.2  46693.82  36817.50  78.85
949.2  46838.19  36644.56  78.24
950.2  46912.95  36459.75  77.72
951.2  46909.80  36247.40  77.27
952.2  47054.57  36042.73  76.60
953.2  47260.85  35963.20  76.10
954.2  47365.65  35803.13  75.59
955.2  47408.68  35569.31  75.03
956.2  47434.65  35375.08  74.58
957.2  47543.77  35250.72  74.14
958.2  47601.59  35148.10  73.84
959.2  47735.55  35037.15  73.40
960.1  47775.14  34959.08  73.17
961.1  47870.63  34925.25  72.96
962.1  47933.44  34847.19  72.70
963.1  48032.50  34861.42  72.58
964.1  48057.21  34852.22  72.52
965.1  48243.99  34931.33  72.41
966.1  48335.33  34918.69  72.24
967.0  48410.39  34950.70  72.20
968.0  48434.88  34923.00  72.10
969.0  48556.60  34981.87  72.04
970.0  48603.65  35006.98  72.03
971.0  48737.12  35066.12  71.95
971.9  48722.90  35111.35  72.06
972.9  48879.95  35086.36  71.78
973.9  48859.53  35131.96  71.90
974.9  49044.08  35173.85  71.72
975.8  49101.73  35288.91  71.87
976.8  49135.91  35317.06  71.88
977.8  49315.41  35468.02  71.92
978.8  49372.50  35536.85  71.98
979.7  49504.50  35692.13  72.10
980.7  49626.72  35881.29  72.30
981.7  49868.69  36071.84  72.33
982.6  50026.42  36359.57  72.68
983.6  50542.44  36767.89  72.75
984.6  51139.74  37293.17  72.92
985.5  51570.00  37840.92  73.38
986.5  52881.11  38732.05  73.24
987.5  53801.49  39533.86  73.48
988.4  54737.10  40368.17  73.75
989.4  56052.04  41113.15  73.35
990.4  57074.27  42525.93  74.51
991.3  59136.61  43344.13  73.29
992.3  61232.97  44408.58  72.52
993.2  62381.81  46000.98  73.74
994.2  63759.15  46975.99  73.68
995.2  64627.45  47561.33  73.59
996.1  65405.36  48188.06  73.68
997.1  65143.00  48531.54  74.50
998.0  67149.60  48306.60  71.94
999.0  66846.51  48418.56  72.43
1000.0  67127.69  48626.95  72.44
1000.9  65712.83  49055.09  74.65
1001.9  66491.34  48517.06  72.97
1002.8  64393.95  47947.01  74.46
1003.8  65025.46  48587.26  74.72
1004.8  66172.20  48374.16  73.10
961.5  59748.86  35224.11  58.95
965.5  58598.35  34942.93  59.63
969.5  56260.49  34284.74  60.94
973.4  53913.29  33507.98  62.15
977.4  51859.95  32929.29  63.50
981.4  50850.20  32828.79  64.56
985.3  50481.20  33016.02  65.40
989.3  50535.22  33384.83  66.06
993.3  50635.09  33783.94  66.72
997.2  50595.02  34049.74  67.30
1001.2  50545.04  34305.31  67.87
1005.2  50473.33  34632.74  68.62
1009.1  50535.74  35083.23  69.42
1013.1  50697.93  35619.35  70.26
1017.1  50843.90  36164.01  71.13
1021.0  50855.49  36611.84  71.99
1025.0  50816.26  37017.44  72.85
1029.0  50641.08  37311.16  73.68
1032.9  50496.42  37620.92  74.50
1036.9  50486.34  38035.77  75.34
1040.9  50614.23  38536.94  76.14
1044.8  50848.91  39088.04  76.87
1048.8  51055.33  39577.62  77.52
1052.7  51200.97  39985.88  78.10
1056.7  51265.76  40275.39  78.56
1060.7  51328.86  40478.40  78.86
1064.6  51364.29  40638.16  79.12
1068.6  51285.22  40663.19  79.29
1072.5  51205.93  40609.49  79.31
1076.5  51155.97  40530.92  79.23
1080.4  51154.95  40423.58  79.02
1084.4  51258.31  40349.30  78.72
1088.3  51367.47  40231.54  78.32
1092.3  51376.13  39953.63  77.77
1096.2  51342.58  39637.68  77.20
1100.2  51360.86  39345.63  76.61
1104.1  51244.60  38924.39  75.96
1108.1  51175.76  38537.77  75.30
1112.0  51059.75  38088.89  74.60
1116.0  50831.30  37514.19  73.80
1119.9  50653.13  36895.06  72.84
1123.9  50703.41  36316.45  71.63
1127.8  50649.60  35435.52  69.96
1131.8  50608.23  34306.51  67.79
1135.7  50617.81  33013.65  65.22
1139.6  50606.06  31585.35  62.41
1143.6  50555.26  30194.24  59.73
1147.5  50517.05  29005.53  57.42
1151.4  50365.69  28003.21  55.60
1155.4  50355.11  27350.17  54.31
1159.3  50376.78  26919.73  53.44
1163.2  50207.59  26538.79  52.86
1167.2  50161.80  26334.06  52.50
1171.1  50174.37  26195.67  52.21
1175.0  50101.08  26034.52  51.96
1179.0  50065.70  25890.19  51.71
1182.9  50165.17  25819.03  51.47
1186.8  50159.61  25707.69  51.25
1190.7  49934.95  25494.84  51.06
1194.7  49665.47  25282.43  50.91
1198.6  49438.62  25123.56  50.82
1202.5  49264.40  25032.29  50.81
1206.4  49122.14  24997.70  50.89
1210.3  49037.26  25020.20  51.02
1214.2  48930.30  25065.78  51.23
1218.2  48765.56  25111.19  51.49
1222.1  48630.48  25197.85  51.81
1226.0  48538.40  25303.67  52.13
1229.9  48450.48  25392.30  52.41
1233.8  48352.03  25470.69  52.68
1237.7  48317.50  25559.28  52.90
1241.6  48229.08  25619.73  53.12
1245.5  48061.09  25635.20  53.34
1249.4  47934.98  25648.19  53.51
1253.3  47803.87  25657.11  53.67
1257.2  47735.46  25670.81  53.78
1261.1  47624.11  25645.25  53.85
1265.0  47490.52  25584.37  53.87
1268.9  47304.07  25461.42  53.83
1272.8  47372.70  25451.45  53.73
1276.7  47590.81  25489.73  53.56
1280.6  47691.16  25436.98  53.34
1284.5  47615.01  25254.00  53.04
1288.4  47591.67  25069.53  52.68
1292.3  47467.75  24794.92  52.24
1296.2  47318.59  24463.09  51.70
1300.1  47148.87  24072.54  51.06
1303.9  46897.39  23601.11  50.32
1307.8  46639.44  23098.92  49.53
1311.7  46386.67  22558.11  48.63
1315.6  46123.85  21987.22  47.67
1319.5  45848.18  21376.30  46.62
1323.3  45606.50  20759.92  45.52
1327.2  45386.16  20143.87  44.38
1331.1  45132.53  19515.01  43.24
1335.0  44824.46  18873.54  42.11
1338.8  44600.56  18295.78  41.02
1342.7  44421.07  17764.68  39.99
1346.5  44042.02  17170.89  38.99
1350.4  43720.62  16622.80  38.02
