/*** Spectra Vista SIG Data ***/
name= RS.sig
comm= SIG file reprocesed for matching/overlap;Averaged Ref/Tar of files: RS1,RS2,RS3
data=
346.4  468.20  138.55  29.59
347.9  473.76  137.00  28.92
349.5  521.04  139.36  26.75
351.1  558.48  140.92  25.23
352.6  585.06  141.26  24.14
354.2  625.05  146.72  23.47
355.7  673.50  157.15  23.33
357.3  724.71  160.66  22.17
358.8  751.43  164.85  21.94
360.4  798.47  165.32  20.70
361.9  821.87  164.84  20.06
363.5  851.78  164.47  19.31
365.1  887.68  165.86  18.68
366.6  918.37  169.17  18.42
368.2  973.68  167.88  17.24
369.7  1008.89  163.80  16.24
371.3  1073.36  166.82  15.54
372.8  1148.72  168.77  14.69
374.4  1191.49  173.55  14.57
375.9  1247.87  174.33  13.97
377.4  1278.23  177.26  13.87
379.0  1330.29  173.98  13.08
380.5  1360.26  174.90  12.86
382.1  1412.49  170.90  12.10
383.6  1460.03  170.10  11.65
385.2  1529.00  173.25  11.33
386.7  1608.26  169.22  10.52
388.3  1679.42  178.90  10.65
389.8  1759.55  182.09  10.35
391.3  1843.67  185.20  10.05
392.9  1897.62  189.67  10.00
394.4  1955.58  197.84  10.12
395.9  2019.02  210.90  10.45
397.5  2131.80  218.03  10.23
399.0  2240.25  212.70  9.49
400.6  2303.62  202.35  8.78
402.1  2342.64  197.37  8.43
403.6  2375.92  194.20  8.17
405.1  2451.81  188.90  7.70
406.7  2542.40  193.01  7.59
408.2  2650.73  197.51  7.45
409.7  2746.24  198.99  7.25
411.3  2843.51  205.40  7.22
412.8  2936.43  213.70  7.28
414.3  3034.90  213.75  7.04
415.8  3152.50  224.17  7.11
417.4  3253.58  230.65  7.09
418.9  3339.60  234.87  7.03
420.4  3424.70  235.12  6.87
421.9  3487.22  234.34  6.72
423.5  3546.87  236.23  6.66
425.0  3613.98  230.37  6.37
426.5  3695.85  231.84  6.27
428.0  3801.23  229.20  6.03
429.5  3926.30  235.69  6.00
431.1  4071.24  234.46  5.76
432.6  4225.66  239.35  5.66
434.1  4373.60  246.40  5.63
435.6  4514.36  249.29  5.52
437.1  4642.95  255.78  5.51
438.6  4769.06  259.38  5.44
440.1  4906.69  266.65  5.43
441.6  5042.30  272.01  5.39
443.1  5179.95  277.43  5.36
444.7  5318.34  283.59  5.33
446.2  5433.01  290.49  5.35
447.7  5551.25  291.98  5.26
449.2  5676.48  295.56  5.21
450.7  5788.64  296.75  5.13
452.2  5916.62  297.05  5.02
453.7  6028.91  298.00  4.94
455.2  6201.73  298.87  4.82
456.7  6390.56  304.19  4.76
458.2  6607.30  311.06  4.71
459.7  6823.25  317.92  4.66
461.2  7031.76  326.23  4.64
462.7  7219.07  334.43  4.63
464.2  7396.86  342.52  4.63
465.7  7583.22  347.34  4.58
467.2  7742.35  357.73  4.62
468.7  7912.00  365.33  4.62
470.2  8015.91  376.69  4.70
471.7  8177.13  388.31  4.75
473.2  8446.52  398.01  4.71
474.6  8688.33  395.88  4.56
476.1  8747.12  388.67  4.44
477.6  8779.39  384.98  4.39
479.1  8829.54  383.15  4.34
480.6  8916.06  384.63  4.31
482.1  9046.91  381.88  4.22
483.6  9204.08  386.15  4.20
485.1  9394.00  388.62  4.14
486.6  9626.34  395.67  4.11
488.0  9867.00  400.29  4.06
489.5  10130.90  409.67  4.04
491.0  10387.73  416.30  4.01
492.5  10649.88  424.17  3.98
494.0  10928.34  432.46  3.96
495.4  11158.95  441.38  3.96
496.9  11406.10  448.67  3.93
498.4  11649.48  458.38  3.93
499.9  11878.23  462.87  3.90
501.4  12101.58  470.28  3.89
502.8  12308.24  477.69  3.88
504.3  12497.40  486.30  3.89
505.8  12681.02  490.38  3.87
507.2  12808.72  493.90  3.86
508.7  12896.48  496.40  3.85
510.2  12964.78  501.68  3.87
511.6  13008.39  502.04  3.86
513.1  13093.74  504.28  3.85
514.6  13195.49  500.65  3.79
516.0  13281.41  500.59  3.77
517.5  13429.99  503.72  3.75
519.0  13603.01  509.24  3.74
520.5  13772.72  509.77  3.70
521.9  13993.28  516.81  3.69
523.4  14243.35  522.36  3.67
524.8  14493.24  532.30  3.67
526.3  14778.04  541.07  3.66
527.8  15074.01  551.14  3.66
529.2  15339.71  561.42  3.66
530.7  15629.94  567.67  3.63
532.1  15903.48  580.22  3.65
533.6  16214.37  591.56  3.65
535.0  16534.98  602.62  3.64
536.5  16856.03  612.64  3.63
538.0  17178.24  627.13  3.65
539.4  17501.02  638.85  3.65
540.9  17879.62  656.51  3.67
542.3  18237.67  668.16  3.66
543.8  18504.51  677.21  3.66
545.2  18600.74  676.04  3.63
546.6  18637.00  679.45  3.65
548.1  18690.38  679.94  3.64
549.5  18745.60  680.34  3.63
551.0  18790.92  679.88  3.62
552.4  18868.34  681.62  3.61
553.9  18922.09  683.78  3.61
555.3  18999.63  682.99  3.59
556.8  19143.87  692.44  3.62
558.2  19276.31  691.59  3.59
559.6  19441.66  700.94  3.61
561.1  19660.88  710.40  3.61
562.5  19883.82  720.32  3.62
564.0  20177.05  733.33  3.63
565.4  20444.07  750.35  3.67
566.8  20774.24  770.35  3.71
568.3  21077.79  785.99  3.73
569.7  21403.31  807.34  3.77
571.1  21706.83  829.10  3.82
572.6  22010.94  856.17  3.89
574.0  22299.75  882.48  3.96
575.4  22570.31  913.22  4.05
576.9  22820.49  943.06  4.13
578.3  23040.88  980.74  4.26
579.7  23243.15  1014.07  4.36
581.1  23410.31  1054.83  4.51
582.6  23592.46  1099.90  4.66
584.0  23735.52  1148.33  4.84
585.4  23971.18  1204.10  5.02
586.8  24286.87  1265.16  5.21
588.3  24642.54  1333.02  5.41
589.7  24935.04  1404.78  5.63
591.1  25126.37  1471.42  5.86
592.5  25213.30  1537.75  6.10
594.0  25248.06  1601.36  6.34
595.4  25246.58  1677.15  6.64
596.8  25248.80  1748.89  6.93
598.2  25256.70  1829.37  7.24
599.6  25254.00  1914.41  7.58
601.0  25321.45  2008.24  7.93
602.4  25392.58  2108.31  8.30
603.9  25508.50  2214.07  8.68
605.3  25652.08  2324.04  9.06
606.7  25770.60  2437.80  9.46
608.1  26003.60  2564.78  9.86
609.5  26249.20  2701.47  10.29
610.9  26543.12  2843.99  10.71
612.3  26820.62  2994.64  11.17
613.7  27191.20  3161.10  11.63
615.1  27470.34  3323.43  12.10
616.5  27748.85  3488.20  12.57
617.9  28163.94  3685.22  13.08
619.3  28559.37  3882.76  13.60
620.7  29021.55  4101.02  14.13
622.1  29524.34  4297.56  14.56
623.5  30070.32  4488.97  14.93
624.9  30686.25  4707.98  15.34
626.3  31117.56  4916.41  15.80
627.7  30854.43  5045.46  16.35
629.1  30617.27  5191.99  16.96
630.5  30534.25  5367.16  17.58
631.9  30583.88  5560.86  18.18
633.3  30636.73  5746.10  18.76
634.7  30802.72  5947.58  19.31
636.1  30887.16  6101.98  19.76
637.5  30991.21  6249.25  20.16
638.9  31137.59  6389.67  20.52
640.2  31275.86  6505.99  20.80
641.6  31334.94  6581.64  21.00
643.0  31307.82  6636.50  21.20
644.4  31297.86  6676.46  21.33
645.8  31223.60  6682.46  21.40
647.2  31327.01  6728.69  21.48
648.5  31378.61  6774.12  21.59
649.9  31215.99  6779.01  21.72
651.3  31061.55  6808.93  21.92
652.7  30880.50  6829.75  22.12
654.1  30705.72  6727.28  21.91
655.5  30448.41  6581.12  21.61
656.8  30219.54  6436.14  21.30
658.2  30347.48  6358.10  20.95
659.6  30667.01  6303.15  20.55
660.9  30915.41  6217.37  20.11
662.3  31175.28  6121.65  19.64
663.7  31418.10  6001.45  19.10
665.0  31622.76  5877.16  18.59
666.4  31821.65  5762.38  18.11
667.8  32088.83  5670.09  17.67
669.1  32304.87  5584.55  17.29
670.5  32567.66  5532.11  16.99
671.9  32723.64  5482.16  16.75
673.2  32957.22  5478.90  16.62
674.6  33165.65  5501.92  16.59
676.0  33416.99  5562.94  16.65
677.3  33670.84  5666.28  16.83
678.7  33959.63  5826.75  17.16
680.0  34360.72  6078.24  17.69
681.4  34770.40  6426.68  18.48
682.8  35166.95  6901.97  19.63
684.1  35575.02  7516.47  21.13
685.5  35948.61  8280.62  23.03
686.8  36307.14  9195.07  25.33
688.2  36654.12  10246.90  27.96
689.5  36792.82  11367.43  30.90
690.9  36894.22  12556.14  34.03
692.2  37000.50  13784.03  37.25
693.6  37086.31  15035.54  40.54
694.9  37102.94  16230.45  43.74
696.2  37172.03  17410.43  46.84
697.6  37238.58  18533.51  49.77
698.9  37321.68  19610.36  52.54
700.3  37412.04  20645.78  55.18
701.6  37521.51  21614.14  57.60
703.0  37648.39  22520.36  59.82
704.3  37727.46  23311.82  61.79
705.6  37779.39  24050.27  63.66
707.0  37853.11  24741.88  65.36
708.3  37804.36  25306.75  66.94
709.6  37779.31  25829.01  68.37
711.0  37700.05  26264.80  69.67
712.3  37603.29  26661.51  70.90
713.6  37599.66  27083.28  72.03
714.9  37564.50  27454.47  73.09
716.3  37606.65  27844.50  74.04
717.6  37655.10  28236.81  74.99
718.9  37643.31  28513.87  75.75
720.2  37519.65  28678.28  76.44
721.6  37437.79  28855.50  77.08
722.9  37295.06  29002.34  77.76
724.2  37099.21  29070.81  78.36
725.5  36957.59  29174.55  78.94
726.8  36833.83  29239.90  79.38
728.1  36764.75  29330.39  79.78
729.5  36694.32  29403.47  80.13
730.8  36660.60  29477.86  80.41
732.1  36590.42  29528.16  80.70
733.4  36549.03  29588.66  80.96
734.7  36509.02  29626.44  81.15
736.0  36510.50  29713.86  81.38
737.3  36452.29  29760.09  81.64
738.6  36538.42  29920.86  81.89
739.9  36706.85  30160.04  82.16
741.2  36841.35  30336.67  82.34
742.5  37078.82  30621.16  82.58
743.8  37494.19  31050.73  82.81
745.1  38118.44  31655.14  83.04
746.4  38876.11  32320.85  83.14
747.7  39639.96  33006.48  83.27
749.0  40400.48  33680.42  83.37
750.3  40850.46  34066.21  83.39
751.6  40764.46  34072.83  83.58
752.9  40356.61  33818.24  83.80
754.2  39863.99  33510.77  84.06
755.4  39350.05  33172.03  84.30
756.7  39155.03  33100.05  84.54
758.0  39142.09  33172.54  84.75
759.3  39351.46  33440.03  84.98
760.6  39645.76  33796.33  85.25
761.9  39928.94  34128.31  85.47
763.1  40078.15  34311.50  85.61
764.4  40287.45  34537.90  85.73
765.7  40433.25  34701.88  85.83
767.0  40515.07  34836.97  85.99
768.2  40595.52  34956.88  86.11
769.5  40644.33  35054.44  86.25
770.8  40787.04  35226.07  86.37
772.0  40799.41  35282.79  86.48
773.3  40833.29  35374.54  86.63
774.6  40907.98  35486.14  86.75
775.8  40955.53  35564.18  86.84
777.1  40964.33  35599.00  86.90
778.4  40867.87  35551.35  86.99
779.6  40816.98  35559.30  87.12
780.9  40688.00  35516.67  87.29
782.1  40484.72  35412.42  87.47
783.4  40464.32  35420.32  87.53
784.6  40463.12  35449.10  87.61
785.9  40670.74  35731.29  87.86
787.1  41171.80  36208.52  87.94
788.4  41528.97  36531.67  87.97
789.6  41482.13  36454.60  87.88
790.9  41134.16  36102.19  87.77
792.1  40655.28  35735.43  87.90
793.4  40180.32  35372.64  88.03
794.6  39846.60  35118.55  88.13
795.8  39587.54  34915.46  88.20
797.1  39290.10  34692.99  88.30
798.3  39054.26  34553.82  88.48
799.5  38943.25  34468.24  88.51
800.8  38778.22  34363.87  88.62
802.0  38618.88  34250.30  88.69
803.2  38465.20  34112.44  88.68
804.5  38332.71  34013.73  88.73
805.7  38219.65  33915.73  88.74
806.9  38073.35  33807.78  88.80
808.1  37984.05  33741.71  88.83
809.4  37906.28  33706.82  88.92
810.6  37824.15  33648.01  88.96
811.8  37796.29  33644.46  89.02
813.0  37827.58  33663.93  88.99
814.2  37840.50  33704.53  89.07
815.4  37955.24  33793.66  89.04
816.6  38027.91  33830.49  88.96
817.9  38102.35  33857.95  88.86
819.1  38072.96  33782.95  88.73
820.3  37949.69  33662.37  88.70
821.5  37894.61  33564.68  88.57
822.7  37866.54  33517.78  88.52
823.9  37906.28  33501.96  88.38
825.1  37943.15  33469.38  88.21
826.3  38020.73  33451.73  87.98
827.5  38108.05  33445.35  87.76
828.7  38176.32  33435.44  87.58
829.9  38262.68  33418.12  87.34
831.0  38386.63  33461.56  87.17
832.2  38533.16  33502.34  86.94
833.4  38634.36  33541.42  86.82
834.6  38746.88  33594.53  86.70
835.8  38872.58  33647.51  86.56
837.0  39026.76  33748.34  86.47
838.1  39200.00  33883.89  86.44
839.3  39334.99  33966.63  86.35
840.5  39499.16  34081.92  86.29
841.7  39675.29  34227.41  86.27
842.9  39834.34  34383.94  86.32
844.0  40002.80  34521.32  86.30
845.2  40188.33  34645.17  86.21
846.4  40315.24  34753.81  86.21
847.5  40575.08  34952.78  86.14
848.7  40794.29  35130.91  86.12
849.9  41043.27  35277.58  85.95
851.0  41176.72  35333.84  85.81
852.2  41283.01  35398.90  85.75
853.3  41336.03  35384.62  85.60
854.5  41385.60  35378.14  85.48
855.6  41408.01  35396.10  85.48
856.8  41491.09  35446.00  85.43
857.9  41535.42  35450.96  85.35
859.1  41657.80  35563.20  85.37
860.2  41711.76  35577.25  85.29
861.4  41789.90  35622.98  85.24
862.5  41857.52  35656.16  85.18
863.7  41978.22  35737.86  85.13
864.8  42001.40  35755.95  85.13
865.9  42003.19  35724.64  85.05
867.1  42077.89  35730.26  84.91
868.2  42118.25  35737.01  84.85
869.3  42153.63  35732.40  84.77
870.5  42092.46  35662.37  84.72
871.6  42122.53  35664.56  84.67
872.7  42223.14  35718.87  84.60
873.9  42262.83  35698.83  84.47
875.0  42247.20  35644.81  84.37
876.1  42225.11  35608.66  84.33
877.2  42279.84  35580.44  84.15
878.3  42302.12  35517.27  83.96
879.4  42284.06  35501.89  83.96
880.5  42343.92  35477.04  83.78
881.7  42326.05  35390.01  83.61
882.8  42351.34  35370.32  83.52
883.9  42430.09  35337.97  83.29
885.0  42357.32  35223.83  83.16
886.1  42357.47  35147.27  82.98
887.2  42241.92  34963.63  82.77
888.3  42147.85  34805.47  82.58
889.4  42045.32  34644.88  82.40
890.5  41945.29  34525.17  82.31
891.6  41864.40  34432.87  82.25
892.7  41844.69  34345.82  82.08
893.8  41881.85  34311.02  81.92
894.9  41879.31  34264.89  81.82
896.0  41812.69  34158.66  81.69
897.0  41850.92  34101.78  81.48
898.1  41821.61  34047.97  81.41
899.2  41852.54  34005.38  81.25
900.3  41747.94  33868.17  81.13
901.4  41622.41  33742.59  81.07
902.4  41658.53  33705.31  80.91
903.5  41604.82  33566.23  80.68
904.6  41550.72  33521.28  80.68
905.7  41565.54  33460.96  80.50
906.7  41536.49  33369.22  80.34
907.8  41558.34  33322.86  80.18
908.9  41493.73  33198.22  80.01
909.9  41451.58  33112.77  79.88
911.0  41358.23  32979.35  79.74
912.1  41297.17  32852.18  79.55
913.1  41189.72  32702.80  79.40
914.2  41099.85  32520.84  79.13
915.2  41068.89  32435.87  78.98
916.3  41034.15  32354.30  78.85
917.3  40975.74  32208.45  78.60
918.4  40862.80  32013.94  78.34
919.4  40836.29  31879.97  78.07
920.5  40782.84  31749.26  77.85
921.5  40833.45  31634.19  77.47
922.6  40729.18  31446.54  77.21
923.6  40739.49  31358.13  76.97
924.7  40774.75  31241.29  76.62
925.7  40746.72  31077.70  76.27
926.7  40808.40  30951.86  75.85
927.8  40839.01  30816.74  75.46
928.8  40966.59  30731.47  75.02
929.9  41048.46  30666.70  74.71
930.9  41217.18  30614.12  74.28
931.9  41378.61  30593.80  73.94
932.9  41679.25  30651.64  73.54
934.0  41702.58  30496.75  73.13
935.0  41757.18  30341.90  72.66
936.0  41670.71  30137.63  72.32
937.0  41632.50  29923.86  71.88
938.1  41580.55  29723.14  71.48
939.1  41508.45  29555.04  71.20
940.1  41591.64  29407.13  70.70
941.1  41779.29  29390.67  70.35
942.1  41991.60  29358.71  69.92
943.1  42156.63  29252.19  69.39
944.1  42391.18  29263.67  69.03
945.2  42445.20  29073.66  68.50
946.2  42493.04  28917.96  68.05
947.2  42572.63  28762.94  67.56
948.2  42750.54  28627.27  66.96
949.2  42846.38  28476.77  66.46
950.2  42880.60  28268.60  65.92
951.2  42968.52  28093.52  65.38
952.2  43001.40  27909.75  64.90
953.2  43164.71  27795.57  64.39
954.2  43310.48  27652.58  63.85
955.2  43368.34  27437.42  63.27
956.2  43301.73  27255.36  62.94
957.2  43392.87  27159.13  62.59
958.2  43492.10  27021.53  62.13
959.2  43506.45  26950.80  61.95
960.1  43588.22  26837.70  61.57
961.1  43692.83  26824.96  61.39
962.1  43658.44  26742.50  61.25
963.1  43782.00  26716.14  61.02
964.1  43817.42  26662.13  60.85
965.1  43908.74  26724.42  60.86
966.1  44007.38  26702.14  60.68
967.0  44141.86  26693.49  60.47
968.0  44131.86  26673.83  60.44
969.0  44255.20  26685.80  60.30
970.0  44255.36  26718.76  60.37
971.0  44316.83  26715.41  60.28
971.9  44400.90  26703.52  60.14
972.9  44577.14  26702.03  59.90
973.9  44494.78  26667.77  59.93
974.9  44573.29  26658.69  59.81
975.8  44702.44  26689.01  59.70
976.8  44666.28  26672.78  59.72
977.8  44950.93  26717.82  59.44
978.8  44877.90  26757.63  59.62
979.7  45104.10  26726.32  59.25
981.4  47578.80  27472.12  57.74
985.3  47203.20  27404.08  58.06
989.3  47137.31  27511.54  58.36
993.3  47133.16  27686.18  58.74
997.2  47029.21  27828.48  59.17
1001.2  46955.35  28026.22  59.69
1005.2  46914.32  28315.87  60.36
1009.1  47038.13  28762.33  61.15
1013.1  47236.75  29263.83  61.95
1017.1  47375.30  29745.17  62.79
1021.0  47429.61  30141.36  63.55
1025.0  47461.87  30513.95  64.29
1029.0  47354.18  30814.96  65.07
1032.9  47271.77  31137.86  65.87
1036.9  47308.70  31549.60  66.69
1040.9  47476.08  32020.42  67.45
1044.8  47747.63  32527.59  68.12
1048.8  47970.59  32970.98  68.73
1052.7  48104.60  33339.79  69.31
1056.7  48183.46  33593.91  69.72
1060.7  48250.82  33785.10  70.02
1064.6  48272.17  33923.94  70.28
1068.6  48190.54  33938.33  70.43
1072.5  48116.11  33901.44  70.46
1076.5  48076.67  33840.04  70.39
1080.4  48048.88  33739.92  70.22
1084.4  48150.59  33647.86  69.88
1088.3  48279.53  33529.79  69.45
1092.3  48252.92  33284.94  68.98
1096.2  48221.83  32999.51  68.43
1100.2  48245.69  32751.25  67.88
1104.1  48124.97  32391.73  67.31
1108.1  48059.38  32061.14  66.71
1112.0  47955.87  31668.87  66.04
1116.0  47754.46  31160.94  65.25
1119.9  47569.76  30599.52  64.33
1123.9  47623.80  30063.21  63.13
1127.8  47592.96  29258.24  61.48
1131.8  47556.42  28224.48  59.35
1135.7  47568.82  27038.44  56.84
1139.6  47554.30  25734.57  54.12
1143.6  47510.71  24488.23  51.54
1147.5  47481.98  23416.25  49.32
1151.4  47337.52  22518.35  47.57
1155.4  47322.86  21945.24  46.37
1159.3  47329.81  21561.48  45.56
1163.2  47159.49  21223.14  45.00
1167.2  47113.86  21035.86  44.65
1171.1  47117.13  20896.93  44.35
1175.0  47022.16  20748.76  44.13
1179.0  46962.63  20618.90  43.90
1182.9  47045.30  20533.36  43.65
1186.8  47019.62  20422.10  43.43
1190.7  46784.64  20236.21  43.25
1194.7  46508.35  20054.18  43.12
1198.6  46264.68  19923.75  43.06
1202.5  46100.54  19860.50  43.08
1206.4  45962.62  19842.99  43.17
1210.3  45829.98  19857.84  43.33
1214.2  45707.13  19904.88  43.55
1218.2  45554.16  19955.89  43.81
1222.1  45384.95  20032.08  44.14
1226.0  45257.55  20131.31  44.48
1229.9  45156.00  20215.26  44.77
1233.8  45033.17  20281.57  45.04
1237.7  44950.68  20359.37  45.29
1241.6  44841.64  20417.12  45.53
1245.5  44683.61  20425.99  45.71
1249.4  44538.65  20432.89  45.88
1253.3  44401.40  20445.52  46.05
1257.2  44324.52  20463.66  46.17
1261.1  44209.48  20451.85  46.26
1265.0  44086.55  20411.30  46.30
1268.9  43910.05  20307.74  46.25
1272.8  43969.80  20294.85  46.16
1276.7  44155.69  20321.39  46.02
1280.6  44249.88  20260.91  45.79
1284.5  44188.89  20089.09  45.46
1288.4  44167.03  19923.76  45.11
1292.3  44060.50  19681.75  44.67
1296.2  43934.23  19393.34  44.14
1300.1  43787.98  19055.76  43.52
1303.9  43564.57  18646.36  42.80
1307.8  43339.22  18202.16  42.00
1311.7  43109.06  17721.57  41.11
1315.6  42877.90  17221.01  40.16
1319.5  42633.84  16679.93  39.12
1323.3  42417.44  16132.51  38.03
1327.2  42218.70  15585.86  36.92
1331.1  42002.86  15032.62  35.79
1335.0  41739.72  14469.93  34.67
1338.8  41543.11  13958.50  33.60
1342.7  41389.31  13498.39  32.61
1346.5  41042.00  12987.03  31.64
1350.4  40741.74  12523.45  30.74
1354.3  40332.24  12054.64  29.89
1358.1  39895.31  11589.69  29.05
1362.0  39644.33  11192.51  28.23
1365.8  39567.12  10827.62  27.37
1369.7  39683.68  10464.81  26.37
1373.5  39615.26  9951.60  25.12
1377.4  39354.79  9273.39  23.56
1381.2  39167.92  8513.27  21.74
1385.1  39160.09  7757.63  19.81
1389.0  39060.88  6984.26  17.88
1392.8  38834.72  6207.22  15.98
1396.6  38680.88  5529.30  14.29
1400.5  38476.57  4947.79  12.86
1404.3  38299.58  4482.64  11.70
1408.2  38263.03  4129.23  10.79
1412.0  38218.70  3851.91  10.08
1415.8  38249.29  3652.11  9.55
1419.6  38208.11  3493.69  9.14
1423.5  38172.20  3375.50  8.84
1427.3  38125.77  3284.89  8.62
1431.1  38099.78  3221.68  8.46
1434.9  38010.73  3170.85  8.34
1438.8  37949.80  3137.60  8.27
1442.6  37913.52  3116.57  8.22
1446.4  37795.09  3091.01  8.18
1450.2  37700.99  3076.26  8.16
1454.0  37583.52  3067.36  8.16
1457.8  37547.69  3076.89  8.19
1461.6  37527.24  3094.44  8.25
1465.4  37404.28  3114.94  8.33
1469.2  37216.73  3147.09  8.46
1473.0  37080.95  3200.70  8.63
1476.8  37019.78  3275.01  8.85
1480.7  36949.43  3366.08  9.11
1484.4  36826.56  3466.36  9.41
1488.2  36723.96  3585.68  9.76
1492.0  36584.11  3708.89  10.14
1495.8  36452.33  3828.83  10.50
