/*** Spectra Vista SIG Data ***/
name= GT1.sig
comm= SIG file reprocesed for matching/overlap;Averaged Ref/Tar of files: GD6T1,GD6T2,GD6T3
data=
346.4  350.35  51.81  14.79
347.9  381.21  51.88  13.61
349.5  410.28  52.00  12.67
351.1  433.68  53.66  12.37
352.6  475.96  55.24  11.61
354.2  499.06  56.29  11.28
355.7  540.48  58.15  10.76
357.3  582.54  61.95  10.63
358.8  588.91  64.31  10.92
360.4  636.67  67.77  10.64
361.9  668.64  63.15  9.44
363.5  692.50  62.79  9.07
365.1  712.57  64.73  9.08
366.6  747.47  65.83  8.81
368.2  792.37  68.05  8.59
369.7  840.74  65.52  7.79
371.3  898.85  69.80  7.77
372.8  941.22  69.72  7.41
374.4  986.23  69.87  7.08
375.9  1017.83  71.05  6.98
377.4  1052.18  74.37  7.07
379.0  1086.82  73.20  6.74
380.5  1123.29  70.17  6.25
382.1  1153.93  74.67  6.47
383.6  1194.95  74.47  6.23
385.2  1251.25  70.95  5.67
386.7  1299.60  75.27  5.79
388.3  1372.34  78.99  5.76
389.8  1424.66  80.52  5.65
391.3  1483.01  81.69  5.51
392.9  1530.61  86.68  5.66
394.4  1562.39  88.63  5.67
395.9  1621.81  95.88  5.91
397.5  1711.90  97.33  5.69
399.0  1784.48  98.88  5.54
400.6  1838.09  98.11  5.34
402.1  1856.31  94.94  5.11
403.6  1888.03  92.23  4.88
405.1  1944.54  94.60  4.86
406.7  2010.40  97.21  4.84
408.2  2079.37  100.53  4.83
409.7  2148.16  102.89  4.79
411.3  2213.53  106.18  4.80
412.8  2271.65  112.97  4.97
414.3  2341.03  115.68  4.94
415.8  2417.50  120.17  4.97
417.4  2490.79  122.28  4.91
418.9  2548.98  123.97  4.86
420.4  2593.45  127.45  4.91
421.9  2640.22  129.07  4.89
423.5  2679.41  128.58  4.80
425.0  2722.85  132.60  4.87
426.5  2778.88  132.30  4.76
428.0  2849.90  135.05  4.74
429.5  2939.79  137.07  4.66
431.1  3042.79  143.32  4.71
432.6  3149.06  148.03  4.70
434.1  3259.99  154.26  4.73
435.6  3346.58  158.93  4.75
437.1  3441.75  165.36  4.80
438.6  3531.11  169.51  4.80
440.1  3611.12  173.14  4.79
441.6  3703.62  178.49  4.82
443.1  3787.76  184.01  4.86
444.7  3873.68  189.61  4.89
446.2  3941.61  194.22  4.93
447.7  4009.71  196.62  4.90
449.2  4084.56  201.31  4.93
450.7  4145.44  204.26  4.93
452.2  4210.01  206.19  4.90
453.7  4291.20  208.35  4.86
455.2  4393.26  214.09  4.87
456.7  4515.28  220.35  4.88
458.2  4654.47  229.04  4.92
459.7  4795.00  233.57  4.87
461.2  4934.06  244.51  4.96
462.7  5054.96  249.76  4.94
464.2  5177.07  257.66  4.98
465.7  5301.12  266.10  5.02
467.2  5404.44  272.71  5.05
468.7  5508.00  278.67  5.06
470.2  5586.81  287.86  5.15
471.7  5702.38  301.15  5.28
473.2  5885.72  309.96  5.27
474.6  6027.25  310.93  5.16
476.1  6074.86  312.91  5.15
477.6  6093.70  312.94  5.14
479.1  6122.60  315.24  5.15
480.6  6163.05  320.25  5.20
482.1  6243.66  323.01  5.17
483.6  6332.42  327.82  5.18
485.1  6458.38  334.16  5.17
486.6  6604.00  342.46  5.19
488.0  6753.50  351.65  5.21
489.5  6913.82  362.19  5.24
491.0  7075.65  371.42  5.25
492.5  7238.97  383.62  5.30
494.0  7404.10  396.32  5.35
495.4  7549.58  405.68  5.37
496.9  7695.36  417.39  5.42
498.4  7836.28  429.89  5.49
499.9  7979.51  442.88  5.55
501.4  8103.78  453.93  5.60
502.8  8223.51  467.70  5.69
504.3  8333.10  480.24  5.76
505.8  8444.88  493.42  5.84
507.2  8514.20  505.60  5.94
508.7  8565.01  515.24  6.02
510.2  8590.79  527.48  6.14
511.6  8618.22  536.60  6.23
513.1  8670.26  548.91  6.33
514.6  8732.77  562.37  6.44
516.0  8783.27  576.22  6.56
517.5  8880.96  591.89  6.66
519.0  8994.65  611.76  6.80
520.5  9112.66  630.42  6.92
521.9  9263.01  652.31  7.04
523.4  9434.43  677.24  7.18
524.8  9608.27  699.20  7.28
526.3  9802.81  726.44  7.41
527.8  10000.35  754.77  7.55
529.2  10181.33  780.35  7.66
530.7  10383.39  808.27  7.78
532.1  10567.68  833.91  7.89
533.6  10773.42  862.64  8.01
535.0  10980.59  892.70  8.13
536.5  11186.70  921.93  8.24
538.0  11401.56  951.53  8.35
539.4  11601.83  983.68  8.48
540.9  11838.18  1021.12  8.63
542.3  12056.36  1050.74  8.72
543.8  12205.88  1080.04  8.85
545.2  12241.58  1098.73  8.98
546.6  12248.30  1116.67  9.12
548.1  12260.70  1136.98  9.27
549.5  12261.13  1152.84  9.40
551.0  12260.01  1170.82  9.55
552.4  12274.54  1192.52  9.72
553.9  12279.40  1210.28  9.86
555.3  12300.80  1230.14  10.00
556.8  12360.66  1254.78  10.15
558.2  12414.09  1279.24  10.30
559.6  12499.51  1307.13  10.46
561.1  12612.44  1339.00  10.62
562.5  12742.28  1374.41  10.79
564.0  12915.37  1416.04  10.96
565.4  13070.62  1454.77  11.13
566.8  13269.64  1501.55  11.32
568.3  13461.39  1547.34  11.49
569.7  13659.35  1596.32  11.69
571.1  13859.91  1644.57  11.87
572.6  14064.03  1693.76  12.04
574.0  14250.23  1744.49  12.24
575.4  14437.41  1795.39  12.44
576.9  14612.77  1843.03  12.61
578.3  14771.90  1892.37  12.81
579.7  14927.19  1940.58  13.00
581.1  15049.34  1989.96  13.22
582.6  15179.87  2034.90  13.41
584.0  15306.40  2081.84  13.60
585.4  15471.50  2134.71  13.80
586.8  15703.41  2194.42  13.97
588.3  15959.97  2256.23  14.14
589.7  16164.72  2313.64  14.31
591.1  16308.26  2359.50  14.47
592.5  16380.50  2397.35  14.64
594.0  16416.90  2428.09  14.79
595.4  16426.30  2454.39  14.94
596.8  16438.21  2481.05  15.09
598.2  16446.40  2504.99  15.23
599.6  16446.15  2526.64  15.36
601.0  16488.64  2552.21  15.48
602.4  16524.83  2578.56  15.60
603.9  16595.00  2606.27  15.71
605.3  16677.56  2637.65  15.82
606.7  16748.10  2667.48  15.93
608.1  16880.08  2707.73  16.04
609.5  17023.96  2752.10  16.17
610.9  17200.20  2805.51  16.31
612.3  17363.60  2856.42  16.45
613.7  17583.26  2919.75  16.61
615.1  17730.09  2975.29  16.78
616.5  17885.32  3034.41  16.97
617.9  18120.27  3108.96  17.16
619.3  18343.55  3186.46  17.37
620.7  18613.68  3271.99  17.58
622.1  18877.69  3358.14  17.79
623.5  19168.37  3453.87  18.02
624.9  19495.88  3553.48  18.23
626.3  19705.80  3634.75  18.45
627.7  19502.63  3636.95  18.65
629.1  19316.59  3644.73  18.87
630.5  19234.56  3670.15  19.08
631.9  19243.16  3713.37  19.30
633.3  19227.78  3755.28  19.53
634.7  19307.14  3813.36  19.75
636.1  19335.07  3869.34  20.01
637.5  19378.14  3918.32  20.22
638.9  19457.31  3950.40  20.30
640.2  19514.53  3959.51  20.29
641.6  19531.98  3954.91  20.25
643.0  19504.65  3935.89  20.18
644.4  19507.28  3914.39  20.07
645.8  19449.04  3878.75  19.94
647.2  19526.59  3868.85  19.81
648.5  19579.91  3849.82  19.66
649.9  19492.88  3815.17  19.57
651.3  19428.45  3795.93  19.54
652.7  19344.30  3772.81  19.50
654.1  19217.52  3744.61  19.49
655.5  19076.42  3692.96  19.36
656.8  18936.77  3631.48  19.18
658.2  19052.33  3615.77  18.98
659.6  19274.42  3608.81  18.72
660.9  19463.87  3592.05  18.45
662.3  19650.11  3570.75  18.17
663.7  19826.10  3549.42  17.90
665.0  19986.79  3526.37  17.64
666.4  20146.14  3508.71  17.42
667.8  20346.56  3509.26  17.25
669.1  20529.76  3515.08  17.12
670.5  20738.52  3541.29  17.08
671.9  20872.26  3572.99  17.12
673.2  21059.41  3628.65  17.23
674.6  21230.21  3703.93  17.45
676.0  21420.32  3804.84  17.76
677.3  21614.12  3927.85  18.17
678.7  21817.38  4074.62  18.68
680.0  22089.50  4255.09  19.26
681.4  22373.47  4465.01  19.96
682.8  22657.86  4699.09  20.74
684.1  22942.53  4960.18  21.62
685.5  23200.94  5232.00  22.55
686.8  23448.72  5517.12  23.53
688.2  23672.40  5800.63  24.50
689.5  23749.65  6050.67  25.48
690.9  23825.77  6297.09  26.43
692.2  23869.28  6532.76  27.37
693.6  23926.69  6758.96  28.25
694.9  23920.11  6953.82  29.07
696.2  23942.14  7145.81  29.85
697.6  23961.85  7327.36  30.58
698.9  23992.32  7501.47  31.27
700.3  24038.01  7671.26  31.91
701.6  24084.68  7834.01  32.53
703.0  24137.54  7992.02  33.11
704.3  24141.49  8121.38  33.64
705.6  24144.66  8240.17  34.13
707.0  24151.61  8355.39  34.60
708.3  24094.31  8442.44  35.04
709.6  24038.25  8523.55  35.46
711.0  23936.43  8581.95  35.85
712.3  23827.16  8631.10  36.22
713.6  23789.01  8703.58  36.59
714.9  23716.29  8761.89  36.94
716.3  23686.39  8833.84  37.30
717.6  23672.15  8914.82  37.66
718.9  23614.96  8969.22  37.98
720.2  23494.56  9001.70  38.31
721.6  23399.74  9039.57  38.63
722.9  23270.63  9060.82  38.94
724.2  23091.17  9067.59  39.27
725.5  22957.02  9080.74  39.56
726.8  22832.78  9091.00  39.82
728.1  22750.67  9120.78  40.09
729.5  22685.44  9147.91  40.33
730.8  22628.18  9182.67  40.58
732.1  22547.20  9203.16  40.82
733.4  22493.78  9231.90  41.04
734.7  22430.29  9261.28  41.29
736.0  22412.65  9304.22  41.51
737.3  22354.35  9340.05  41.78
738.6  22392.88  9415.58  42.05
739.9  22486.41  9509.91  42.29
741.2  22557.99  9592.49  42.52
742.5  22690.46  9710.08  42.79
743.8  22954.18  9875.44  43.02
745.1  23356.68  10106.33  43.27
746.4  23838.13  10373.54  43.52
747.7  24340.83  10648.88  43.75
749.0  24845.90  10927.39  43.98
750.3  25109.11  11107.68  44.24
751.6  25056.94  11144.80  44.48
752.9  24812.33  11094.37  44.71
754.2  24511.78  11023.17  44.97
755.4  24190.11  10936.09  45.21
756.7  24095.29  10948.31  45.44
758.0  24119.44  11009.40  45.65
759.3  24282.67  11138.53  45.87
760.6  24509.10  11298.88  46.10
761.9  24709.31  11448.92  46.33
763.1  24854.26  11566.34  46.54
764.4  25021.13  11695.96  46.74
765.7  25148.50  11809.63  46.96
767.0  25255.87  11908.59  47.15
768.2  25351.20  12000.58  47.34
769.5  25424.49  12092.03  47.56
770.8  25570.26  12207.56  47.74
772.0  25587.81  12277.75  47.98
773.3  25669.17  12365.07  48.17
774.6  25760.75  12462.75  48.38
775.8  25826.13  12554.26  48.61
777.1  25851.30  12619.48  48.82
778.4  25836.83  12658.32  48.99
779.6  25861.37  12716.69  49.17
780.9  25820.00  12749.87  49.38
782.1  25728.02  12757.24  49.59
783.4  25750.40  12811.69  49.75
784.6  25767.74  12869.67  49.94
785.9  25975.04  13017.55  50.12
787.1  26352.59  13255.69  50.30
788.4  26662.70  13458.97  50.48
789.6  26677.46  13510.23  50.64
790.9  26422.83  13448.05  50.90
792.1  26144.60  13351.68  51.07
793.4  25865.12  13256.05  51.25
794.6  25676.57  13206.52  51.43
795.8  25513.36  13180.09  51.66
797.1  25350.08  13138.79  51.83
798.3  25228.50  13122.75  52.02
799.5  25169.97  13131.53  52.17
800.8  25099.23  13133.88  52.33
802.0  25011.42  13130.90  52.50
803.2  24918.76  13126.08  52.68
804.5  24860.18  13133.34  52.83
805.7  24781.04  13132.43  52.99
806.9  24699.71  13130.34  53.16
808.1  24647.73  13141.53  53.32
809.4  24609.13  13163.29  53.49
810.6  24558.63  13166.79  53.61
811.8  24538.32  13197.76  53.78
813.0  24560.28  13234.58  53.89
814.2  24583.06  13273.89  54.00
815.4  24644.79  13339.93  54.13
816.6  24675.27  13383.12  54.24
817.9  24704.84  13424.87  54.34
819.1  24672.89  13425.47  54.41
820.3  24583.02  13401.72  54.52
821.5  24511.70  13388.04  54.62
822.7  24474.49  13392.66  54.72
823.9  24466.74  13410.55  54.81
825.1  24483.13  13420.85  54.82
826.3  24493.16  13439.44  54.87
827.5  24511.03  13454.84  54.89
828.7  24560.16  13467.20  54.83
829.9  24556.61  13481.86  54.90
831.0  24631.50  13516.04  54.87
832.2  24684.15  13541.77  54.86
833.4  24732.69  13572.27  54.88
834.6  24771.09  13608.75  54.94
835.8  24806.25  13642.02  54.99
837.0  24848.21  13687.49  55.08
838.1  24942.61  13750.75  55.13
839.3  24987.97  13787.30  55.18
840.5  25056.73  13842.12  55.24
841.7  25139.84  13906.75  55.32
842.9  25202.72  13967.30  55.42
844.0  25272.39  14020.23  55.48
845.2  25356.92  14078.88  55.52
846.4  25406.55  14132.90  55.63
847.5  25535.27  14221.06  55.69
848.7  25649.51  14307.02  55.78
849.9  25759.43  14385.19  55.84
851.0  25787.85  14426.21  55.94
852.2  25836.49  14471.73  56.01
853.3  25835.02  14483.06  56.06
854.5  25803.13  14503.32  56.21
855.6  25784.28  14514.61  56.29
856.8  25811.14  14551.16  56.38
857.9  25796.36  14559.37  56.44
859.1  25866.40  14620.84  56.52
860.2  25870.46  14641.19  56.59
861.4  25883.89  14667.32  56.67
862.5  25913.95  14702.01  56.73
863.7  25967.63  14747.44  56.79
864.8  25978.23  14766.10  56.84
865.9  25934.02  14765.33  56.93
867.1  25972.57  14790.60  56.95
868.2  25960.64  14813.00  57.06
869.3  25983.57  14827.26  57.06
870.5  25945.69  14816.16  57.10
871.6  25952.82  14831.91  57.15
872.7  25988.86  14869.58  57.22
873.9  26010.48  14881.72  57.21
875.0  25998.57  14873.02  57.21
876.1  25976.68  14869.93  57.24
877.2  25992.15  14877.57  57.24
878.3  25997.76  14872.78  57.21
879.4  26016.59  14882.08  57.20
880.5  26032.32  14892.41  57.21
881.7  26038.68  14878.76  57.14
882.8  26051.76  14907.97  57.22
883.9  26088.59  14905.26  57.13
885.0  26049.66  14895.15  57.18
886.1  26068.54  14889.83  57.12
887.2  25979.14  14826.58  57.07
888.3  25929.87  14794.46  57.06
889.4  25867.81  14755.90  57.04
890.5  25830.84  14717.17  56.98
891.6  25777.28  14687.43  56.98
892.7  25812.52  14677.46  56.86
893.8  25792.32  14680.15  56.92
894.9  25833.34  14658.52  56.74
896.0  25797.95  14628.94  56.71
897.0  25823.30  14639.67  56.69
898.1  25837.83  14626.58  56.61
899.2  25853.12  14618.35  56.54
900.3  25827.20  14569.52  56.41
901.4  25755.93  14534.69  56.43
902.4  25796.28  14534.56  56.34
903.5  25760.57  14483.09  56.22
904.6  25773.48  14481.01  56.19
905.7  25786.56  14461.58  56.08
906.7  25778.44  14433.88  55.99
907.8  25791.16  14432.59  55.96
908.9  25756.23  14381.25  55.84
909.9  25738.83  14356.08  55.78
911.0  25715.27  14302.61  55.62
912.1  25708.69  14253.54  55.44
913.1  25683.06  14212.71  55.34
914.2  25568.28  14122.20  55.23
915.2  25594.38  14090.56  55.05
916.3  25582.28  14051.24  54.93
917.3  25579.53  13994.66  54.71
918.4  25529.08  13910.58  54.49
919.4  25526.52  13845.74  54.24
920.5  25540.93  13778.84  53.95
921.5  25532.64  13730.05  53.77
922.6  25509.72  13640.99  53.47
923.6  25552.64  13584.79  53.16
924.7  25558.13  13503.43  52.83
925.7  25559.01  13434.54  52.56
926.7  25571.07  13355.61  52.23
927.8  25622.74  13273.14  51.80
928.8  25737.00  13239.26  51.44
929.9  25798.01  13176.35  51.08
930.9  25912.02  13133.93  50.69
931.9  26063.45  13091.69  50.23
932.9  26272.00  13091.99  49.83
934.0  26311.65  12997.05  49.40
935.0  26328.00  12877.49  48.91
936.0  26313.67  12761.01  48.50
937.0  26305.79  12629.32  48.01
938.1  26273.03  12513.58  47.63
939.1  26282.27  12397.25  47.17
940.1  26307.38  12297.82  46.75
941.1  26474.98  12231.97  46.20
942.1  26613.43  12170.07  45.73
943.1  26709.35  12103.34  45.31
944.1  26891.46  12032.05  44.74
945.2  26931.87  11910.69  44.23
946.2  27005.05  11798.49  43.69
947.2  27050.94  11678.16  43.17
948.2  27161.01  11573.29  42.61
949.2  27258.97  11453.33  42.02
950.2  27257.00  11318.68  41.53
951.2  27381.90  11186.95  40.86
952.2  27427.92  11052.52  40.30
953.2  27549.11  10940.78  39.71
954.2  27670.16  10856.01  39.23
955.2  27683.23  10719.95  38.72
956.2  27678.04  10595.30  38.28
957.2  27683.31  10509.23  37.96
958.2  27771.67  10433.54  37.57
959.2  27855.45  10384.05  37.28
960.1  27895.78  10323.20  37.01
961.1  27947.74  10279.71  36.78
962.1  27921.09  10249.32  36.71
963.1  28038.72  10204.85  36.40
964.1  28081.62  10177.99  36.24
965.1  28159.91  10207.65  36.25
966.1  28230.04  10160.19  35.99
967.0  28291.66  10156.81  35.90
968.0  28354.15  10145.69  35.78
969.0  28355.00  10156.44  35.82
970.0  28440.42  10125.39  35.60
971.0  28447.07  10137.81  35.64
971.9  28529.94  10149.23  35.57
972.9  28619.85  10162.84  35.51
973.9  28640.46  10186.13  35.57
974.9  28629.25  10167.92  35.52
975.8  28737.28  10172.29  35.40
976.8  28722.61  10219.15  35.58
977.8  28846.97  10211.39  35.40
978.8  28789.28  10255.86  35.62
979.7  28914.30  10279.82  35.55
981.4  29806.10  9482.60  31.81
985.3  29606.90  9549.91  32.26
989.3  29665.19  9681.57  32.64
993.3  29713.32  9847.30  33.14
997.2  29668.74  9979.89  33.64
1001.2  29627.00  10135.19  34.21
1005.2  29568.23  10335.90  34.96
1009.1  29600.49  10555.85  35.66
1013.1  29702.49  10814.20  36.41
1017.1  29789.49  11093.74  37.24
1021.0  29789.99  11346.70  38.09
1025.0  29760.59  11591.89  38.95
1029.0  29636.30  11815.53  39.87
1032.9  29533.53  12031.59  40.74
1036.9  29509.70  12279.57  41.61
1040.9  29556.91  12547.51  42.45
1044.8  29679.34  12824.59  43.21
1048.8  29786.37  13072.47  43.89
1052.7  29868.84  13271.29  44.43
1056.7  29898.31  13423.02  44.90
1060.7  29913.73  13538.09  45.26
1064.6  29918.21  13633.36  45.57
1068.6  29859.11  13659.07  45.75
1072.5  29814.52  13631.03  45.72
1076.5  29798.83  13585.58  45.59
1080.4  29797.49  13523.08  45.38
1084.4  29858.05  13442.66  45.02
1088.3  29928.60  13337.59  44.56
1092.3  29919.24  13170.15  44.02
1096.2  29930.07  12980.94  43.37
1100.2  29956.02  12802.64  42.74
1104.1  29873.92  12579.50  42.11
1108.1  29858.25  12363.13  41.41
1112.0  29809.22  12123.14  40.67
1116.0  29674.06  11838.17  39.89
1119.9  29580.84  11508.65  38.91
1123.9  29636.88  11161.81  37.66
1127.8  29621.76  10661.12  35.99
1131.8  29615.13  10033.00  33.88
1135.7  29658.37  9314.04  31.40
1139.6  29649.41  8557.55  28.86
1143.6  29635.32  7885.17  26.61
1147.5  29635.02  7334.13  24.75
1151.4  29535.85  6895.04  23.34
1155.4  29547.88  6620.04  22.40
1159.3  29582.50  6450.26  21.80
1163.2  29498.44  6304.19  21.37
1167.2  29505.90  6220.96  21.08
1171.1  29517.01  6163.55  20.88
1175.0  29484.53  6101.01  20.69
1179.0  29486.15  6045.33  20.50
1182.9  29537.81  6018.06  20.37
1186.8  29538.86  5982.59  20.25
1190.7  29410.97  5925.82  20.15
1194.7  29255.48  5879.61  20.10
1198.6  29133.72  5846.61  20.07
1202.5  29044.69  5836.11  20.09
1206.4  28972.03  5837.73  20.15
1210.3  28920.11  5844.76  20.21
1214.2  28863.76  5862.57  20.31
1218.2  28763.18  5885.92  20.46
1222.1  28692.28  5914.65  20.61
1226.0  28656.56  5953.05  20.77
1229.9  28600.92  5981.58  20.91
1233.8  28545.33  6006.30  21.04
1237.7  28520.81  6037.25  21.17
1241.6  28465.46  6069.54  21.32
1245.5  28370.21  6086.31  21.45
1249.4  28299.76  6096.82  21.54
1253.3  28232.22  6110.20  21.64
1257.2  28191.00  6120.46  21.71
1261.1  28130.65  6118.74  21.75
1265.0  28057.45  6102.05  21.75
1268.9  27949.80  6059.33  21.68
1272.8  27989.85  6043.90  21.59
1276.7  28109.94  6031.63  21.46
1280.6  28175.48  5981.68  21.23
1284.5  28132.96  5899.15  20.97
1288.4  28112.11  5819.02  20.70
1292.3  28036.25  5706.25  20.35
1296.2  27954.20  5570.03  19.93
1300.1  27848.52  5423.84  19.48
1303.9  27706.57  5250.76  18.95
1307.8  27559.31  5064.87  18.38
1311.7  27397.23  4871.95  17.78
1315.6  27238.78  4664.34  17.12
1319.5  27066.08  4450.36  16.44
1323.3  26913.00  4238.64  15.75
1327.2  26776.06  4032.60  15.06
1331.1  26621.95  3836.15  14.41
1335.0  26429.02  3643.07  13.78
1338.8  26290.11  3476.18  13.22
1342.7  26169.42  3323.29  12.70
1346.5  25929.13  3165.87  12.21
1350.4  25728.90  3046.33  11.84
1354.3  25457.85  2920.67  11.47
1358.1  25158.95  2788.67  11.08
1362.0  24980.59  2673.70  10.70
1365.8  24927.82  2555.47  10.25
1369.7  24996.19  2444.14  9.78
1373.5  24961.93  2308.76  9.25
1377.4  24802.90  2134.24  8.60
1381.2  24660.90  1945.65  7.89
1385.1  24643.85  1760.95  7.15
1389.0  24592.75  1581.23  6.43
1392.8  24461.78  1420.45  5.81
1396.6  24365.22  1284.93  5.27
1400.5  24231.60  1167.01  4.82
1404.3  24125.27  1071.58  4.44
1408.2  24097.32  998.36  4.14
1412.0  24070.61  947.88  3.94
1415.8  24101.54  910.24  3.78
1419.6  24084.23  875.79  3.64
1423.5  24070.46  850.16  3.53
1427.3  24053.34  835.45  3.47
1431.1  24042.83  823.05  3.42
1434.9  23983.10  812.42  3.39
1438.8  23944.05  803.31  3.35
1442.6  23927.04  793.95  3.32
1446.4  23856.75  784.47  3.29
1450.2  23800.39  780.55  3.28
1454.0  23730.24  774.44  3.26
1457.8  23714.21  773.58  3.26
1461.6  23699.02  777.98  3.28
1465.4  23623.88  781.77  3.31
1469.2  23507.58  785.63  3.34
1473.0  23416.67  788.60  3.37
1476.8  23385.95  804.13  3.44
1480.7  23341.52  821.20  3.52
1484.4  23269.68  835.24  3.59
1488.2  23205.84  866.40  3.73
1492.0  23119.76  898.99  3.89
1495.8  23050.30  922.89  4.00
1499.6  22974.60  938.19  4.08
1503.4  22886.86  948.76  4.15
1507.2  22817.82  954.61  4.18
1510.9  22736.47  959.85  4.22
1514.7  22640.13  962.34  4.25
