/*** Spectra Vista SIG Data ***/
name= RT.sig
comm= Averaged Ref/Tar of files: RD2T1,RD2T2,RD2T3
data=
346.4  375.83  144.92  38.56
347.9  401.60  147.99  36.85
349.5  421.20  148.20  35.19
351.1  468.00  154.44  33.00
352.6  493.35  157.07  31.84
354.2  533.42  163.08  30.57
355.7  575.84  168.94  29.34
357.3  603.35  176.26  29.21
358.8  618.62  181.16  29.28
360.4  650.74  178.81  27.48
361.9  682.57  184.57  27.04
363.5  713.28  177.17  24.84
365.1  728.18  189.56  26.03
366.6  776.81  180.10  23.18
368.2  809.16  181.87  22.48
369.7  848.90  182.84  21.54
371.3  908.73  185.48  20.41
372.8  949.52  188.69  19.87
374.4  997.91  194.69  19.51
375.9  1022.79  193.09  18.88
377.4  1047.31  188.10  17.96
379.0  1094.78  189.36  17.30
380.5  1126.37  186.70  16.58
382.1  1152.45  183.21  15.90
383.6  1185.03  185.22  15.63
385.2  1243.00  181.96  14.64
386.7  1294.19  185.47  14.33
388.3  1366.90  189.77  13.88
389.8  1427.40  188.95  13.24
391.3  1481.62  197.74  13.35
392.9  1519.23  203.42  13.39
394.4  1563.87  209.71  13.41
395.9  1623.38  220.32  13.57
397.5  1708.67  225.03  13.17
399.0  1779.84  224.54  12.62
400.6  1831.01  217.44  11.88
402.1  1862.76  211.56  11.36
403.6  1891.63  203.79  10.77
405.1  1933.11  198.03  10.24
406.7  2009.28  201.97  10.05
408.2  2091.62  204.19  9.76
409.7  2154.88  211.31  9.81
411.3  2228.45  219.18  9.84
412.8  2294.16  223.57  9.75
414.3  2364.29  230.47  9.75
415.8  2445.00  235.83  9.65
417.4  2522.41  241.62  9.58
418.9  2590.72  248.36  9.59
420.4  2642.05  250.91  9.50
421.9  2693.46  249.26  9.25
423.5  2729.62  248.68  9.11
425.0  2782.41  246.85  8.87
426.5  2840.15  245.82  8.66
428.0  2918.66  246.99  8.46
429.5  3015.83  249.18  8.26
431.1  3123.09  255.75  8.19
432.6  3239.41  260.50  8.04
434.1  3347.58  266.29  7.95
435.6  3461.72  274.77  7.94
437.1  3568.50  279.83  7.84
438.6  3662.76  282.63  7.72
440.1  3754.86  290.43  7.73
441.6  3864.83  294.04  7.61
443.1  3969.00  303.75  7.65
444.7  4062.74  308.25  7.59
446.2  4148.96  316.80  7.64
447.7  4228.70  320.75  7.59
449.2  4326.48  329.40  7.61
450.7  4405.44  329.68  7.48
452.2  4501.82  332.74  7.39
453.7  4598.51  334.32  7.27
455.2  4710.08  339.26  7.20
456.7  4864.64  347.01  7.13
458.2  5024.06  352.12  7.01
459.7  5192.25  359.92  6.93
461.2  5358.54  375.36  7.00
462.7  5506.04  380.08  6.90
464.2  5654.70  388.88  6.88
465.7  5799.60  400.85  6.91
467.2  5934.78  408.74  6.89
468.7  6084.00  422.33  6.94
470.2  6175.52  431.58  6.99
471.7  6317.50  447.29  7.08
473.2  6530.58  464.28  7.11
474.6  6711.26  470.06  7.00
476.1  6777.64  467.11  6.89
477.6  6817.97  463.27  6.79
479.1  6868.67  457.54  6.66
480.6  6943.16  457.93  6.60
482.1  7044.71  459.43  6.52
483.6  7179.15  468.30  6.52
485.1  7342.42  475.85  6.48
486.6  7512.60  482.17  6.42
488.0  7702.50  492.92  6.40
489.5  7905.43  503.34  6.37
491.0  8106.04  515.20  6.36
492.5  8312.22  527.85  6.35
494.0  8521.62  541.19  6.35
495.4  8708.70  554.68  6.37
496.9  8892.75  565.02  6.35
498.4  9073.49  578.55  6.38
499.9  9255.61  594.83  6.43
501.4  9429.98  607.26  6.44
502.8  9589.23  616.24  6.43
504.3  9739.80  630.00  6.47
505.8  9886.78  642.97  6.50
507.2  9982.04  651.55  6.53
508.7  10056.08  662.07  6.58
510.2  10116.56  668.29  6.61
511.6  10165.81  676.09  6.65
513.1  10240.12  681.31  6.65
514.6  10332.89  689.65  6.67
516.0  10415.15  697.55  6.70
517.5  10533.97  708.44  6.73
519.0  10688.92  715.62  6.70
520.5  10833.84  729.80  6.74
521.9  11031.11  740.68  6.71
523.4  11238.37  755.50  6.72
524.8  11445.29  772.42  6.75
526.3  11679.24  790.58  6.77
527.8  11917.35  805.67  6.76
529.2  12130.84  822.38  6.78
530.7  12369.68  844.68  6.83
532.1  12585.13  859.51  6.83
533.6  12831.15  880.27  6.86
535.0  13085.57  901.48  6.89
536.5  13324.14  920.45  6.91
538.0  13582.88  942.69  6.94
539.4  13813.67  963.54  6.98
540.9  14106.35  989.10  7.01
542.3  14352.86  1018.18  7.09
543.8  14538.11  1032.29  7.10
545.2  14603.61  1037.21  7.10
546.6  14612.38  1048.88  7.18
548.1  14635.42  1049.00  7.17
549.5  14661.68  1056.40  7.21
551.0  14682.08  1062.00  7.23
552.4  14720.33  1075.58  7.31
553.9  14746.02  1078.78  7.32
555.3  14784.12  1087.81  7.36
556.8  14878.96  1101.54  7.40
558.2  14969.81  1112.91  7.43
559.6  15082.37  1130.59  7.50
561.1  15237.63  1153.21  7.57
562.5  15400.03  1173.83  7.62
564.0  15615.42  1199.58  7.68
565.4  15817.78  1229.43  7.77
566.8  16062.67  1265.42  7.88
568.3  16298.96  1294.95  7.95
569.7  16545.04  1331.41  8.05
571.1  16788.13  1369.59  8.16
572.6  17031.06  1410.21  8.28
574.0  17260.65  1453.38  8.42
575.4  17492.63  1493.44  8.54
576.9  17697.49  1537.30  8.69
578.3  17885.73  1581.94  8.84
579.7  18065.85  1628.69  9.02
581.1  18213.81  1675.48  9.20
582.6  18368.35  1725.53  9.39
584.0  18490.64  1785.39  9.66
585.4  18689.09  1843.85  9.87
586.8  18931.40  1915.35  10.12
588.3  19216.08  1992.51  10.37
589.7  19445.40  2071.68  10.65
591.1  19609.14  2137.13  10.90
592.5  19676.96  2197.26  11.17
594.0  19722.48  2251.08  11.41
595.4  19724.64  2311.89  11.72
596.8  19729.71  2375.59  12.04
598.2  19730.61  2433.89  12.34
599.6  19722.96  2502.98  12.69
601.0  19768.13  2577.29  13.04
602.4  19803.33  2657.03  13.42
603.9  19878.72  2739.47  13.78
605.3  19971.84  2828.05  14.16
606.7  20053.80  2917.80  14.55
608.1  20202.82  3017.51  14.94
609.5  20368.48  3124.74  15.34
610.9  20575.29  3239.38  15.74
612.3  20769.92  3356.80  16.16
613.7  21037.92  3491.56  16.60
615.1  21222.00  3616.92  17.04
616.5  21410.70  3747.67  17.50
617.9  21704.26  3902.09  17.98
619.3  21980.48  4063.86  18.49
620.7  22304.77  4242.07  19.02
622.1  22673.18  4432.78  19.55
623.5  23107.29  4643.48  20.10
624.9  23584.31  4877.34  20.68
626.3  23918.35  5093.74  21.30
627.7  23721.48  5206.60  21.95
629.1  23519.06  5310.03  22.58
630.5  23436.76  5432.54  23.18
631.9  23435.83  5573.30  23.78
633.3  23441.72  5693.41  24.29
634.7  23552.50  5818.32  24.70
636.1  23582.71  5900.96  25.02
637.5  23660.51  5965.62  25.21
638.9  23751.01  5996.58  25.25
640.2  23822.63  5993.73  25.16
641.6  23842.26  5971.29  25.04
643.0  23805.21  5912.04  24.84
644.4  23777.56  5857.77  24.64
645.8  23694.47  5792.60  24.45
647.2  23763.87  5794.21  24.38
648.5  23790.86  5818.53  24.46
649.9  23654.09  5819.94  24.60
651.3  23516.10  5845.45  24.86
652.7  23378.40  5866.70  25.09
654.1  23274.06  5832.66  25.06
655.5  23143.90  5758.14  24.88
656.8  23013.79  5666.54  24.62
658.2  23150.66  5632.19  24.33
659.6  23415.21  5620.26  24.00
660.9  23626.80  5579.92  23.62
662.3  23846.29  5517.08  23.14
663.7  24059.70  5443.90  22.63
665.0  24229.89  5366.61  22.15
666.4  24402.11  5288.81  21.67
667.8  24629.18  5237.85  21.27
669.1  24814.03  5187.48  20.91
670.5  25020.63  5168.21  20.66
671.9  25159.32  5155.42  20.49
673.2  25353.91  5175.21  20.41
674.6  25516.94  5216.28  20.44
676.0  25725.94  5296.62  20.59
677.3  25915.15  5410.34  20.88
678.7  26154.50  5577.77  21.33
680.0  26451.97  5827.46  22.03
681.4  26778.53  6169.82  23.04
682.8  27083.88  6622.15  24.45
684.1  27389.70  7204.08  26.30
685.5  27674.40  7918.64  28.61
686.8  27957.90  8772.77  31.38
688.2  28220.69  9748.49  34.54
689.5  28323.17  10780.21  38.06
690.9  28397.18  11869.24  41.80
692.2  28465.65  12985.45  45.62
693.6  28536.59  14105.04  49.43
694.9  28517.22  15199.17  53.30
696.2  28547.89  16285.29  57.05
697.6  28596.43  17336.11  60.62
698.9  28644.00  18333.48  64.00
700.3  28705.17  19280.52  67.17
701.6  28765.41  20172.36  70.13
703.0  28860.67  21004.73  72.78
704.3  28906.80  21753.77  75.25
705.6  28921.14  22426.02  77.54
707.0  28958.27  23062.65  79.64
708.3  28919.43  23607.81  81.63
709.6  28875.73  24097.04  83.45
711.0  28801.74  24520.69  85.14
712.3  28711.43  24903.33  86.74
713.6  28694.40  25311.44  88.21
714.9  28641.45  25643.40  89.53
716.3  28656.10  26023.62  90.81
717.6  28685.30  26380.14  91.96
718.9  28648.15  26658.60  93.06
720.2  28528.78  26849.20  94.11
721.6  28449.85  27034.58  95.03
722.9  28332.54  27158.92  95.86
724.2  28155.99  27223.19  96.69
725.5  28032.73  27307.42  97.41
726.8  27925.62  27374.69  98.03
728.1  27865.90  27472.38  98.59
729.5  27815.90  27546.31  99.03
730.8  27769.20  27620.01  99.46
732.1  27707.04  27660.52  99.83
733.4  27666.65  27726.28  100.22
734.7  27644.34  27779.30  100.49
736.0  27644.05  27869.24  100.81
737.3  27602.14  27918.98  101.15
738.6  27655.03  28059.91  101.46
739.9  27781.22  28252.85  101.70
741.2  27897.87  28435.68  101.93
742.5  28086.97  28685.96  102.13
743.8  28404.34  29072.80  102.35
745.1  28886.30  29622.17  102.55
746.4  29467.62  30289.88  102.79
747.7  30058.52  30981.57  103.07
749.0  30649.48  31651.28  103.27
750.3  31009.02  32074.83  103.44
751.6  30954.03  32107.13  103.73
752.9  30655.60  31854.69  103.91
754.2  30304.05  31553.97  104.12
755.4  29910.69  31236.84  104.43
756.7  29777.89  31153.53  104.62
758.0  29774.08  31213.00  104.83
759.3  29957.33  31458.86  105.01
760.6  30196.32  31761.47  105.18
761.9  30426.80  32054.13  105.35
763.1  30561.44  32254.92  105.54
764.4  30727.99  32469.08  105.67
765.7  30845.75  32637.58  105.81
767.0  30947.73  32789.97  105.95
768.2  31019.52  32920.72  106.13
769.5  31071.91  33030.14  106.30
770.8  31199.72  33204.48  106.43
772.0  31185.37  33272.19  106.69
773.3  31230.13  33366.37  106.84
774.6  31300.72  33482.79  106.97
775.8  31376.31  33580.82  107.03
777.1  31370.63  33628.04  107.20
778.4  31319.02  33630.49  107.38
779.6  31286.73  33633.60  107.50
780.9  31204.00  33605.33  107.70
782.1  31060.96  33518.03  107.91
783.4  31054.40  33542.77  108.01
784.6  31042.84  33588.73  108.20
785.9  31237.84  33830.59  108.30
787.1  31639.11  34276.88  108.34
788.4  31949.91  34658.39  108.48
789.6  31907.79  34704.48  108.76
790.9  31665.71  34483.59  108.90
792.1  31329.60  34172.20  109.07
793.4  30973.93  33843.84  109.27
794.6  30732.75  33619.98  109.39
795.8  30540.02  33436.89  109.49
797.1  30313.95  33228.99  109.62
798.3  30165.30  33088.96  109.69
799.5  30070.10  33017.27  109.80
800.8  29982.65  32937.85  109.86
802.0  29863.64  32859.65  110.03
803.2  29746.12  32761.71  110.14
804.5  29672.12  32702.20  110.21
805.7  29595.24  32607.22  110.18
806.9  29480.38  32519.67  110.31
808.1  29426.88  32455.19  110.29
809.4  29371.24  32399.26  110.31
810.6  29329.30  32345.19  110.28
811.8  29300.58  32327.58  110.33
813.0  29331.35  32333.13  110.23
814.2  29359.09  32363.89  110.23
815.4  29429.78  32458.23  110.29
816.6  29486.20  32500.04  110.22
817.9  29575.59  32549.91  110.06
819.1  29526.07  32517.01  110.13
820.3  29437.65  32418.97  110.13
821.5  29385.19  32338.75  110.05
822.7  29374.92  32286.14  109.91
823.9  29392.13  32260.69  109.76
825.1  29429.86  32243.33  109.56
826.3  29471.74  32220.71  109.33
827.5  29526.92  32213.73  109.10
828.7  29608.08  32210.32  108.79
829.9  29657.24  32180.50  108.51
831.0  29734.25  32192.57  108.27
832.2  29824.37  32213.43  108.01
833.4  29920.23  32220.89  107.69
834.6  30014.06  32250.78  107.45
835.8  30093.53  32276.48  107.25
837.0  30168.74  32326.83  107.15
838.1  30311.71  32425.79  106.97
839.3  30403.41  32493.45  106.87
840.5  30496.98  32575.80  106.82
841.7  30619.35  32668.97  106.69
842.9  30744.42  32780.19  106.62
844.0  30857.83  32875.16  106.54
845.2  30971.93  33001.33  106.55
846.4  31096.03  33112.51  106.48
847.5  31277.54  33285.05  106.42
848.7  31452.38  33441.91  106.33
849.9  31615.80  33583.20  106.22
851.0  31703.51  33670.55  106.20
852.2  31800.11  33729.09  106.07
853.3  31816.15  33738.54  106.04
854.5  31847.51  33745.55  105.96
855.6  31862.52  33751.92  105.93
856.8  31919.03  33773.68  105.81
857.9  31944.19  33767.59  105.71
859.1  32066.40  33852.00  105.57
860.2  32053.12  33855.48  105.62
861.4  32117.67  33892.08  105.52
862.5  32210.01  33925.55  105.33
863.7  32276.82  33977.84  105.27
864.8  32299.05  33987.05  105.23
865.9  32286.79  33950.04  105.15
867.1  32333.90  33981.86  105.10
868.2  32370.84  33968.76  104.94
869.3  32389.51  33965.12  104.86
870.5  32386.52  33904.04  104.69
871.6  32382.97  33905.83  104.70
872.7  32468.57  33916.29  104.46
873.9  32497.22  33912.96  104.36
875.0  32520.03  33866.81  104.14
876.1  32496.85  33848.63  104.16
877.2  32551.87  33844.23  103.97
878.3  32568.89  33814.08  103.82
879.4  32599.88  33816.15  103.73
880.5  32639.76  33821.04  103.62
881.7  32608.55  33777.47  103.58
882.8  32659.47  33776.54  103.42
883.9  32700.51  33783.52  103.31
885.0  32704.04  33685.93  103.00
886.1  32712.06  33642.60  102.84
887.2  32588.42  33486.42  102.76
888.3  32552.85  33381.66  102.55
889.4  32489.97  33245.76  102.33
890.5  32445.02  33142.90  102.15
891.6  32417.84  33071.97  102.02
892.7  32408.15  33014.33  101.87
893.8  32397.11  32978.55  101.79
894.9  32411.50  32918.22  101.56
896.0  32359.87  32852.39  101.52
897.0  32369.15  32840.01  101.45
898.1  32385.51  32798.81  101.28
899.2  32437.82  32766.28  101.01
900.3  32348.55  32650.60  100.93
901.4  32270.33  32561.01  100.90
902.4  32311.64  32502.62  100.59
903.5  32249.44  32439.59  100.59
904.6  32222.81  32369.21  100.45
905.7  32296.77  32333.55  100.11
906.7  32248.35  32257.98  100.03
907.8  32260.74  32242.98  99.94
908.9  32203.80  32139.01  99.80
909.9  32167.44  32050.29  99.64
911.0  32148.99  31941.39  99.35
912.1  32081.77  31824.42  99.20
913.1  32030.96  31716.45  99.02
914.2  31897.06  31574.42  98.99
915.2  31908.06  31503.47  98.73
916.3  31928.85  31414.63  98.39
917.3  31893.59  31317.75  98.19
918.4  31847.75  31169.42  97.87
919.4  31797.99  31055.05  97.66
920.5  31816.40  30934.91  97.23
921.5  31811.50  30857.16  97.00
922.6  31723.89  30695.21  96.76
923.6  31789.15  30602.51  96.27
924.7  31820.00  30494.17  95.83
925.7  31819.80  30362.75  95.42
926.7  31834.94  30286.35  95.14
927.8  31873.27  30179.50  94.69
928.8  31969.83  30127.21  94.24
929.9  32072.29  30063.76  93.74
930.9  32185.93  30041.35  93.34
931.9  32337.13  30026.79  92.86
932.9  32594.27  30079.71  92.29
934.0  32680.11  29940.17  91.62
935.0  32649.31  29813.65  91.31
936.0  32632.98  29628.29  90.79
937.0  32604.20  29424.27  90.25
938.1  32550.13  29241.36  89.83
939.1  32567.43  29060.32  89.23
940.1  32595.90  28964.02  88.86
941.1  32724.65  28929.33  88.40
942.1  32930.91  28935.88  87.87
943.1  33075.96  28867.48  87.28
944.1  33300.93  28839.37  86.60
945.2  33318.18  28696.08  86.13
946.2  33442.99  28568.36  85.42
947.2  33450.88  28437.48  85.01
948.2  33585.83  28355.32  84.43
949.2  33661.06  28179.80  83.72
950.2  33748.10  28050.83  83.12
951.2  33829.32  27898.36  82.47
952.2  33892.66  27728.16  81.81
953.2  34040.83  27608.26  81.10
954.2  34084.58  27484.24  80.64
955.2  34212.29  27311.96  79.83
956.2  34174.87  27127.51  79.38
957.2  34260.89  27028.75  78.89
958.2  34294.67  26912.81  78.48
959.2  34348.95  26884.20  78.27
960.1  34516.56  26789.48  77.61
961.1  34449.44  26740.82  77.62
962.1  34520.63  26662.35  77.24
963.1  34533.05  26634.05  77.13
964.1  34777.51  26609.21  76.51
965.1  34797.06  26634.90  76.54
966.1  34780.98  26630.01  76.56
967.0  34916.98  26666.51  76.37
968.0  34923.00  26632.25  76.26
969.0  34967.60  26671.53  76.27
970.0  35139.42  26689.33  75.95
971.0  35088.90  26726.81  76.17
971.9  35166.46  26738.95  76.04
972.9  35283.06  26849.55  76.10
973.9  35251.78  26911.68  76.34
974.9  35389.31  27013.30  76.33
975.8  35506.51  27114.75  76.37
976.8  35517.04  27247.73  76.72
977.8  35712.26  27328.43  76.52
978.8  35820.60  27484.03  76.73
979.7  35899.93  27636.96  76.98
980.7  35907.80  27822.25  77.48
981.7  36173.28  28006.76  77.42
982.6  36343.57  28325.90  77.94
983.6  36982.28  28683.60  77.56
984.6  37132.16  29112.02  78.40
985.5  37542.96  29475.12  78.51
986.5  38178.74  30142.49  78.95
987.5  38861.72  30826.63  79.32
988.4  39585.70  31547.63  79.69
989.4  40322.51  32374.52  80.29
990.4  41455.48  33451.46  80.69
991.3  42605.63  34538.96  81.07
992.3  43821.68  35213.85  80.36
993.2  45327.79  36389.39  80.28
994.2  46048.28  37319.35  81.04
995.2  47561.33  38002.43  79.90
996.1  47373.04  38662.51  81.61
997.1  48531.54  38597.23  79.53
998.0  47621.40  39056.40  82.01
999.0  47695.89  39264.80  82.32
1000.0  48376.94  38689.05  79.97
1000.9  49973.23  39676.91  79.40
1001.9  48652.20  39259.62  80.69
1002.8  48504.53  39653.85  81.75
1003.8  48441.79  39859.01  82.28
1004.8  48830.52  39399.08  80.69
961.5  43603.13  30003.34  68.81
965.5  42733.30  29739.87  69.59
969.5  41115.91  29236.55  71.11
973.4  39217.86  28729.71  73.26
977.4  37625.04  28351.68  75.35
981.4  36941.96  28345.77  76.73
985.3  36739.82  28457.41  77.46
989.3  36835.26  28693.42  77.90
993.3  37011.04  28937.84  78.19
997.2  37071.29  29097.63  78.49
1001.2  37081.98  29298.58  79.01
1005.2  37082.45  29568.23  79.74
1009.1  37169.20  29984.92  80.67
1013.1  37321.90  30477.65  81.66
1017.1  37489.79  30949.55  82.55
1021.0  37561.29  31337.52  83.43
1025.0  37591.16  31721.90  84.39
1029.0  37504.29  32035.14  85.42
1032.9  37443.25  32345.99  86.39
1036.9  37487.84  32737.95  87.33
1040.9  37616.96  33187.43  88.22
1044.8  37829.55  33659.56  88.98
1048.8  38009.06  34086.01  89.68
1052.7  38135.46  34444.26  90.32
1056.7  38206.29  34684.57  90.78
1060.7  38253.03  34868.90  91.15
1064.6  38302.51  35016.27  91.42
1068.6  38255.71  35032.08  91.57
1072.5  38210.77  34998.55  91.59
1076.5  38209.71  34950.06  91.47
1080.4  38233.19  34867.56  91.20
1084.4  38324.37  34803.13  90.81
1088.3  38435.15  34713.36  90.32
1092.3  38440.11  34496.04  89.74
1096.2  38422.67  34224.23  89.07
1100.2  38469.96  33979.94  88.33
1104.1  38405.81  33633.58  87.57
1108.1  38374.75  33320.90  86.83
1112.0  38319.84  32965.16  86.03
1116.0  38194.85  32510.36  85.12
1119.9  38069.86  32003.30  84.06
1123.9  38126.09  31517.36  82.67
1127.8  38119.68  30764.80  80.71
1131.8  38115.24  29782.77  78.14
1135.7  38152.26  28658.49  75.12
1139.6  38171.58  27408.93  71.80
1143.6  38166.07  26173.78  68.58
1147.5  38151.95  25101.15  65.79
1151.4  38041.46  24182.11  63.57
1155.4  38031.56  23584.95  62.01
1159.3  38054.38  23190.41  60.94
1163.2  37939.88  22833.26  60.18
1167.2  37931.10  22630.04  59.66
1171.1  37962.97  22488.65  59.24
1175.0  37924.58  22330.54  58.88
1179.0  37899.85  22201.67  58.58
1182.9  37985.14  22133.91  58.27
1186.8  37996.96  22025.20  57.97
1190.7  37828.03  21827.03  57.70
1194.7  37628.09  21635.05  57.50
1198.6  37473.98  21502.64  57.38
1202.5  37348.10  21433.22  57.39
1206.4  37267.92  21402.70  57.43
1210.3  37207.86  21408.02  57.54
1214.2  37122.10  21449.67  57.78
1218.2  37022.51  21505.69  58.09
1222.1  36915.80  21578.98  58.45
1226.0  36831.24  21671.19  58.84
1229.9  36779.88  21761.80  59.17
1233.8  36720.37  21828.29  59.44
1237.7  36686.37  21902.37  59.70
1241.6  36624.59  21948.74  59.93
1245.5  36511.81  21960.66  60.15
1249.4  36428.19  21979.31  60.34
1253.3  36337.59  21990.39  60.52
1257.2  36290.13  22001.87  60.63
1261.1  36219.64  21979.83  60.68
1265.0  36134.28  21929.32  60.69
1268.9  36011.69  21825.44  60.61
1272.8  36081.00  21817.70  60.47
1276.7  36246.66  21852.53  60.29
1280.6  36334.37  21813.64  60.04
1284.5  36301.22  21657.64  59.66
1288.4  36307.88  21492.80  59.20
1292.3  36223.00  21244.67  58.65
1296.2  36120.63  20947.56  57.99
1300.1  36008.39  20603.64  57.22
1303.9  35847.01  20182.83  56.30
1307.8  35680.52  19729.02  55.29
1311.7  35499.29  19239.04  54.20
1315.6  35317.70  18732.70  53.04
1319.5  35118.46  18182.33  51.77
1323.3  34948.61  17614.53  50.40
1327.2  34802.14  17058.01  49.01
1331.1  34634.29  16495.11  47.63
1335.0  34411.02  15923.07  46.27
1338.8  34264.88  15410.24  44.97
1342.7  34160.47  14947.90  43.76
1346.5  33894.88  14441.29  42.61
1350.4  33700.54  13994.38  41.53
1354.3  33414.21  13544.16  40.53
1358.1  33093.33  13091.09  39.56
