/*** Spectra Vista SIG Data ***/
name= GS2.sig
comm= Averaged Ref/Tar of files: GD6S4,GD6S5,GD6S6
data=
346.4  350.35  54.36  15.51
347.9  381.21  51.25  13.44
349.5  410.28  51.37  12.52
351.1  433.68  51.38  11.85
352.6  475.96  56.08  11.78
354.2  499.06  57.38  11.50
355.7  540.48  59.04  10.92
357.3  582.54  62.41  10.71
358.8  588.91  61.28  10.41
360.4  636.67  64.25  10.09
361.9  668.64  63.38  9.48
363.5  692.50  64.40  9.30
365.1  712.57  62.18  8.73
366.6  747.47  64.91  8.68
368.2  792.37  64.46  8.14
369.7  840.74  63.34  7.53
371.3  898.85  62.56  6.96
372.8  941.22  68.17  7.24
374.4  986.23  65.19  6.61
375.9  1017.83  65.10  6.40
377.4  1052.18  66.78  6.35
379.0  1086.82  66.62  6.13
380.5  1123.29  64.22  5.72
382.1  1153.93  64.22  5.57
383.6  1194.95  61.43  5.14
385.2  1251.25  62.33  4.98
386.7  1299.60  63.00  4.85
388.3  1372.34  65.58  4.78
389.8  1424.66  66.25  4.65
391.3  1483.01  68.88  4.64
392.9  1530.61  67.90  4.44
394.4  1562.39  71.22  4.56
395.9  1621.81  78.50  4.84
397.5  1711.90  80.53  4.70
399.0  1784.48  80.13  4.49
400.6  1838.09  74.71  4.06
402.1  1856.31  73.45  3.96
403.6  1888.03  69.85  3.70
405.1  1944.54  69.92  3.60
406.7  2010.40  69.89  3.48
408.2  2079.37  70.98  3.41
409.7  2148.16  72.28  3.36
411.3  2213.53  77.11  3.48
412.8  2271.65  77.42  3.41
414.3  2341.03  81.59  3.49
415.8  2417.50  84.67  3.50
417.4  2490.79  85.69  3.44
418.9  2548.98  87.03  3.41
420.4  2593.45  88.23  3.40
421.9  2640.22  87.44  3.31
423.5  2679.41  88.73  3.31
425.0  2722.85  89.75  3.30
426.5  2778.88  90.44  3.25
428.0  2849.90  90.99  3.19
429.5  2939.79  90.85  3.09
431.1  3042.79  92.75  3.05
432.6  3149.06  96.38  3.06
434.1  3259.99  98.18  3.01
435.6  3346.58  100.23  3.00
437.1  3441.75  103.61  3.01
438.6  3531.11  104.54  2.96
440.1  3611.12  109.96  3.05
441.6  3703.62  113.61  3.07
443.1  3787.76  113.81  3.00
444.7  3873.68  117.82  3.04
446.2  3941.61  121.53  3.08
447.7  4009.71  122.83  3.06
449.2  4084.56  124.56  3.05
450.7  4145.44  123.83  2.99
452.2  4210.01  125.37  2.98
453.7  4291.20  126.28  2.94
455.2  4393.26  128.76  2.93
456.7  4515.28  133.53  2.96
458.2  4654.47  135.84  2.92
459.7  4795.00  141.63  2.95
461.2  4934.06  144.50  2.93
462.7  5054.96  148.57  2.94
464.2  5177.07  152.62  2.95
465.7  5301.12  157.96  2.98
467.2  5404.44  163.50  3.03
468.7  5508.00  169.73  3.08
470.2  5586.81  175.64  3.14
471.7  5702.38  181.77  3.19
473.2  5885.72  186.54  3.17
474.6  6027.25  187.09  3.10
476.1  6074.86  187.55  3.09
477.6  6093.70  184.92  3.03
479.1  6122.60  186.63  3.05
480.6  6163.05  187.39  3.04
482.1  6243.66  190.35  3.05
483.6  6332.42  193.16  3.05
485.1  6458.38  196.49  3.04
486.6  6604.00  200.78  3.04
488.0  6753.50  205.94  3.05
489.5  6913.82  211.57  3.06
491.0  7075.65  218.23  3.08
492.5  7238.97  226.37  3.13
494.0  7404.10  234.02  3.16
495.4  7549.58  240.68  3.19
496.9  7695.36  249.72  3.25
498.4  7836.28  259.07  3.31
499.9  7979.51  267.70  3.35
501.4  8103.78  277.46  3.42
502.8  8223.51  286.20  3.48
504.3  8333.10  296.40  3.56
505.8  8444.88  308.12  3.65
507.2  8514.20  319.37  3.75
508.7  8565.01  328.49  3.84
510.2  8590.79  341.49  3.98
511.6  8618.22  352.74  4.09
513.1  8670.26  365.15  4.21
514.6  8732.77  377.15  4.32
516.0  8783.27  392.03  4.46
517.5  8880.96  408.05  4.59
519.0  8994.65  427.80  4.76
520.5  9112.66  446.85  4.90
521.9  9263.01  470.53  5.08
523.4  9434.43  496.36  5.26
524.8  9608.27  519.25  5.40
526.3  9802.81  547.37  5.58
527.8  10000.35  574.78  5.75
529.2  10181.33  602.75  5.92
530.7  10383.39  631.53  6.08
532.1  10567.68  659.02  6.24
533.6  10773.42  688.62  6.39
535.0  10980.59  718.87  6.55
536.5  11186.70  748.21  6.69
538.0  11401.56  780.65  6.85
539.4  11601.83  813.66  7.01
540.9  11838.18  846.14  7.15
542.3  12056.36  877.22  7.28
543.8  12205.88  902.90  7.40
545.2  12241.58  923.93  7.55
546.6  12248.30  940.62  7.68
548.1  12260.70  959.50  7.83
549.5  12261.13  975.70  7.96
551.0  12260.01  992.11  8.09
552.4  12274.54  1011.00  8.24
553.9  12279.40  1029.73  8.39
555.3  12300.80  1046.68  8.51
556.8  12360.66  1068.06  8.64
558.2  12414.09  1090.69  8.79
559.6  12499.51  1115.99  8.93
561.1  12612.44  1143.24  9.06
562.5  12742.28  1175.70  9.23
564.0  12915.37  1208.40  9.36
565.4  13070.62  1243.53  9.51
566.8  13269.64  1283.21  9.67
568.3  13461.39  1323.21  9.83
569.7  13659.35  1362.74  9.98
571.1  13859.91  1401.54  10.11
572.6  14064.03  1442.88  10.26
574.0  14250.23  1484.89  10.42
575.4  14437.41  1526.74  10.57
576.9  14612.77  1566.07  10.72
578.3  14771.90  1605.53  10.87
579.7  14927.19  1646.13  11.03
581.1  15049.34  1684.88  11.20
582.6  15179.87  1725.87  11.37
584.0  15306.40  1764.12  11.53
585.4  15471.50  1806.97  11.68
586.8  15703.41  1855.46  11.82
588.3  15959.97  1904.29  11.93
589.7  16164.72  1949.38  12.06
591.1  16308.26  1989.83  12.20
592.5  16380.50  2018.60  12.32
594.0  16416.90  2046.10  12.46
595.4  16426.30  2071.73  12.61
596.8  16438.21  2092.66  12.73
598.2  16446.40  2114.36  12.86
599.6  16446.15  2135.55  12.99
601.0  16488.64  2162.40  13.11
602.4  16524.83  2189.36  13.25
603.9  16595.00  2219.83  13.38
605.3  16677.56  2250.05  13.49
606.7  16748.10  2279.16  13.61
608.1  16880.08  2318.21  13.73
609.5  17023.96  2359.94  13.86
610.9  17200.20  2407.66  14.00
612.3  17363.60  2450.82  14.11
613.7  17583.26  2503.08  14.24
615.1  17730.09  2542.54  14.34
616.5  17885.32  2582.55  14.44
617.9  18120.27  2640.49  14.57
619.3  18343.55  2698.33  14.71
620.7  18613.68  2764.34  14.85
622.1  18877.69  2794.77  14.80
623.5  19168.37  2804.73  14.63
624.9  19495.88  2815.66  14.44
626.3  19705.80  2824.04  14.33
627.7  19502.63  2806.02  14.39
629.1  19316.59  2812.82  14.56
630.5  19234.56  2852.01  14.83
631.9  19243.16  2911.72  15.13
633.3  19227.78  2961.88  15.40
634.7  19307.14  3024.78  15.67
636.1  19335.07  3072.69  15.89
637.5  19378.14  3119.10  16.10
638.9  19457.31  3169.83  16.29
640.2  19514.53  3221.43  16.51
641.6  19531.98  3266.95  16.73
643.0  19504.65  3300.77  16.92
644.4  19507.28  3339.91  17.12
645.8  19449.04  3368.56  17.32
647.2  19526.59  3421.11  17.52
648.5  19579.91  3470.10  17.72
649.9  19492.88  3502.53  17.97
651.3  19428.45  3544.67  18.24
652.7  19344.30  3570.68  18.46
654.1  19217.52  3510.26  18.27
655.5  19076.42  3421.48  17.94
656.8  18936.77  3341.96  17.65
658.2  19052.33  3311.93  17.38
659.6  19274.42  3311.62  17.18
660.9  19463.87  3308.72  17.00
662.3  19650.11  3307.42  16.83
663.7  19826.10  3302.04  16.66
665.0  19986.79  3293.54  16.48
666.4  20146.14  3291.47  16.34
667.8  20346.56  3302.93  16.23
669.1  20529.76  3309.22  16.12
670.5  20738.52  3327.64  16.05
671.9  20872.26  3340.43  16.00
673.2  21059.41  3376.02  16.03
674.6  21230.21  3415.14  16.09
676.0  21420.32  3469.50  16.20
677.3  21614.12  3535.24  16.36
678.7  21817.38  3610.66  16.55
680.0  22089.50  3716.73  16.83
681.4  22373.47  3843.52  17.18
682.8  22657.86  3993.69  17.63
684.1  22942.53  4168.94  18.17
685.5  23200.94  4359.26  18.79
686.8  23448.72  4561.66  19.45
688.2  23672.40  4767.60  20.14
689.5  23749.65  4956.93  20.87
690.9  23825.77  5146.02  21.60
692.2  23869.28  5333.07  22.34
693.6  23926.69  5522.32  23.08
694.9  23920.11  5681.71  23.75
696.2  23942.14  5842.41  24.40
697.6  23961.85  5984.89  24.98
698.9  23992.32  6132.90  25.56
700.3  24038.01  6280.37  26.13
701.6  24084.68  6418.62  26.65
703.0  24137.54  6554.90  27.16
704.3  24141.49  6654.13  27.56
705.6  24144.66  6757.38  27.99
707.0  24151.61  6853.29  28.38
708.3  24094.31  6921.51  28.73
709.6  24038.25  6988.29  29.07
711.0  23936.43  7038.50  29.40
712.3  23827.16  7083.20  29.73
713.6  23789.01  7147.14  30.04
714.9  23716.29  7202.63  30.37
716.3  23686.39  7259.23  30.65
717.6  23672.15  7327.34  30.95
718.9  23614.96  7369.94  31.21
720.2  23494.56  7383.93  31.43
721.6  23399.74  7409.22  31.66
722.9  23270.63  7427.29  31.92
724.2  23091.17  7437.72  32.21
725.5  22957.02  7456.63  32.48
726.8  22832.78  7466.85  32.70
728.1  22750.67  7491.33  32.93
729.5  22685.44  7514.35  33.12
730.8  22628.18  7548.02  33.36
732.1  22547.20  7579.87  33.62
733.4  22493.78  7611.80  33.84
734.7  22430.29  7635.69  34.04
736.0  22412.65  7675.38  34.25
737.3  22354.35  7713.62  34.51
738.6  22392.88  7780.18  34.74
739.9  22486.41  7872.15  35.01
741.2  22557.99  7942.30  35.21
742.5  22690.46  8053.38  35.49
743.8  22954.18  8206.47  35.75
745.1  23356.68  8413.52  36.02
746.4  23838.13  8627.95  36.19
747.7  24340.83  8845.69  36.34
749.0  24845.90  9046.15  36.41
750.3  25109.11  9155.42  36.46
751.6  25056.94  9158.97  36.55
752.9  24812.33  9115.39  36.74
754.2  24511.78  9056.71  36.95
755.4  24190.11  8998.70  37.20
756.7  24095.29  9026.10  37.46
758.0  24119.44  9092.93  37.70
759.3  24282.67  9217.95  37.96
760.6  24509.10  9370.18  38.23
761.9  24709.31  9514.82  38.51
763.1  24854.26  9611.64  38.67
764.4  25021.13  9723.22  38.86
765.7  25148.50  9816.73  39.04
767.0  25255.87  9902.44  39.21
768.2  25351.20  9982.56  39.38
769.5  25424.49  10059.75  39.57
770.8  25570.26  10152.88  39.71
772.0  25587.81  10212.44  39.91
773.3  25669.17  10288.59  40.08
774.6  25760.75  10366.00  40.24
775.8  25826.13  10429.62  40.38
777.1  25851.30  10478.42  40.53
778.4  25836.83  10507.22  40.67
779.6  25861.37  10554.14  40.81
780.9  25820.00  10589.33  41.01
782.1  25728.02  10597.19  41.19
783.4  25750.40  10640.72  41.32
784.6  25767.74  10685.73  41.47
785.9  25975.04  10834.53  41.71
787.1  26352.59  11041.60  41.90
788.4  26662.70  11165.06  41.88
789.6  26677.46  11125.00  41.70
790.9  26422.83  11007.82  41.66
792.1  26144.60  10919.49  41.77
793.4  25865.12  10844.15  41.93
794.6  25676.57  10795.63  42.04
795.8  25513.36  10768.34  42.21
797.1  25350.08  10732.34  42.34
798.3  25228.50  10730.58  42.53
799.5  25169.97  10730.99  42.63
800.8  25099.23  10735.69  42.77
802.0  25011.42  10725.06  42.88
803.2  24918.76  10707.28  42.97
804.5  24860.18  10703.85  43.06
805.7  24781.04  10696.62  43.16
806.9  24699.71  10693.48  43.29
808.1  24647.73  10702.88  43.42
809.4  24609.13  10718.48  43.55
810.6  24558.63  10734.06  43.71
811.8  24538.32  10768.54  43.88
813.0  24560.28  10806.43  44.00
814.2  24583.06  10846.77  44.12
815.4  24644.79  10898.66  44.22
816.6  24675.27  10929.73  44.29
817.9  24704.84  10956.52  44.35
819.1  24672.89  10940.28  44.34
820.3  24583.02  10916.81  44.41
821.5  24511.70  10909.49  44.51
822.7  24474.49  10918.94  44.61
823.9  24466.74  10938.70  44.71
825.1  24483.13  10954.17  44.74
826.3  24493.16  10976.80  44.82
827.5  24511.03  11006.17  44.90
828.7  24560.16  11025.78  44.89
829.9  24556.61  11043.51  44.97
831.0  24631.50  11093.56  45.04
832.2  24684.15  11135.30  45.11
833.4  24732.69  11175.93  45.19
834.6  24771.09  11220.63  45.30
835.8  24806.25  11271.02  45.44
837.0  24848.21  11327.58  45.59
838.1  24942.61  11402.06  45.71
839.3  24987.97  11452.29  45.83
840.5  25056.73  11507.93  45.93
841.7  25139.84  11593.40  46.12
842.9  25202.72  11671.14  46.31
844.0  25272.39  11729.34  46.41
845.2  25356.92  11803.09  46.55
846.4  25406.55  11854.60  46.66
847.5  25535.27  11945.77  46.78
848.7  25649.51  12018.08  46.86
849.9  25759.43  12071.66  46.86
851.0  25787.85  12095.27  46.90
852.2  25836.49  12127.90  46.94
853.3  25835.02  12133.39  46.96
854.5  25803.13  12152.63  47.10
855.6  25784.28  12171.35  47.20
856.8  25811.14  12216.18  47.33
857.9  25796.36  12231.07  47.41
859.1  25866.40  12301.21  47.56
860.2  25870.46  12323.45  47.64
861.4  25883.89  12363.99  47.77
862.5  25913.95  12398.40  47.84
863.7  25967.63  12448.38  47.94
864.8  25978.23  12478.50  48.03
865.9  25934.02  12490.07  48.16
867.1  25972.57  12514.95  48.19
868.2  25960.64  12540.92  48.31
869.3  25983.57  12552.26  48.31
870.5  25945.69  12550.73  48.37
871.6  25952.82  12578.70  48.47
872.7  25988.86  12615.12  48.54
873.9  26010.48  12637.47  48.59
875.0  25998.57  12637.24  48.61
876.1  25976.68  12638.78  48.65
877.2  25992.15  12657.84  48.70
878.3  25997.76  12661.16  48.70
879.4  26016.59  12675.21  48.72
880.5  26032.32  12680.54  48.71
881.7  26038.68  12678.94  48.69
882.8  26051.76  12696.79  48.74
883.9  26088.59  12700.13  48.68
885.0  26049.66  12668.75  48.63
886.1  26068.54  12647.59  48.52
887.2  25979.14  12595.35  48.48
888.3  25929.87  12545.74  48.38
889.4  25867.81  12507.72  48.35
890.5  25830.84  12482.73  48.32
891.6  25777.28  12463.08  48.35
892.7  25812.52  12453.58  48.25
893.8  25792.32  12478.55  48.38
894.9  25833.34  12486.19  48.33
896.0  25797.95  12461.21  48.30
897.0  25823.30  12466.95  48.28
898.1  25837.83  12455.77  48.21
899.2  25853.12  12460.80  48.20
900.3  25827.20  12416.09  48.07
901.4  25755.93  12400.93  48.15
902.4  25796.28  12400.02  48.07
903.5  25760.57  12377.50  48.05
904.6  25773.48  12362.10  47.96
905.7  25786.56  12352.60  47.90
906.7  25778.44  12337.30  47.86
907.8  25791.16  12337.40  47.84
908.9  25756.23  12304.95  47.77
909.9  25738.83  12286.44  47.74
911.0  25715.27  12256.11  47.66
912.1  25708.69  12214.41  47.51
913.1  25683.06  12170.18  47.39
914.2  25568.28  12123.46  47.42
915.2  25594.38  12100.55  47.28
916.3  25582.28  12068.71  47.18
917.3  25579.53  12034.77  47.05
918.4  25529.08  11952.91  46.82
919.4  25526.52  11916.48  46.68
920.5  25540.93  11872.61  46.48
921.5  25532.64  11837.35  46.36
922.6  25509.72  11773.23  46.15
923.6  25552.64  11740.81  45.95
924.7  25558.13  11689.55  45.74
925.7  25559.01  11635.40  45.52
926.7  25571.07  11574.81  45.27
927.8  25622.74  11526.54  44.99
928.8  25737.00  11498.85  44.68
929.9  25798.01  11438.40  44.34
930.9  25912.02  11441.10  44.15
931.9  26063.45  11428.71  43.85
932.9  26272.00  11437.07  43.53
934.0  26311.65  11365.19  43.19
935.0  26328.00  11306.49  42.94
936.0  26313.67  11213.27  42.61
937.0  26305.79  11137.69  42.34
938.1  26273.03  11041.96  42.03
939.1  26282.27  10967.97  41.73
940.1  26307.38  10904.15  41.45
941.1  26474.98  10865.57  41.04
942.1  26613.43  10838.66  40.73
943.1  26709.35  10804.64  40.45
944.1  26891.46  10771.16  40.05
945.2  26931.87  10677.27  39.65
946.2  27005.05  10583.02  39.19
947.2  27050.94  10494.92  38.80
948.2  27161.01  10419.31  38.36
949.2  27258.97  10337.28  37.92
950.2  27257.00  10232.15  37.54
951.2  27381.90  10110.24  36.92
952.2  27427.92  10019.13  36.53
953.2  27549.11  9946.08  36.10
954.2  27670.16  9854.03  35.61
955.2  27683.23  9754.16  35.23
956.2  27678.04  9648.70  34.86
957.2  27683.31  9588.58  34.64
958.2  27771.67  9534.45  34.33
959.2  27855.45  9483.84  34.05
960.1  27895.78  9452.91  33.89
961.1  27947.74  9440.67  33.78
962.1  27921.09  9376.50  33.58
963.1  28038.72  9374.21  33.43
964.1  28081.62  9372.37  33.38
965.1  28159.91  9382.80  33.32
966.1  28230.04  9365.42  33.18
967.0  28291.66  9354.35  33.06
968.0  28354.15  9348.83  32.97
969.0  28355.00  9378.91  33.08
970.0  28440.42  9371.98  32.95
971.0  28447.07  9369.19  32.94
971.9  28529.94  9393.47  32.92
972.9  28619.85  9369.48  32.74
973.9  28640.46  9364.53  32.70
974.9  28629.25  9376.10  32.75
975.8  28737.28  9362.44  32.58
976.8  28722.61  9339.22  32.52
977.8  28846.97  9363.98  32.46
978.8  28789.28  9395.53  32.64
979.7  28914.30  9372.85  32.42
980.7  28909.16  9442.86  32.66
981.7  29108.19  9481.00  32.57
982.6  29310.11  9550.79  32.59
983.6  29612.62  9690.43  32.72
984.6  29886.86  9761.03  32.66
985.5  30220.02  9951.86  32.93
986.5  30590.42  10159.92  33.21
987.5  31346.01  10289.80  32.83
988.4  31956.65  10513.51  32.90
989.4  32957.10  10777.64  32.70
990.4  33646.09  11035.33  32.80
991.3  34254.92  11384.22  33.23
992.3  35605.12  11529.27  32.38
993.2  35791.00  11848.06  33.10
994.2  37066.33  12110.87  32.67
995.2  37769.29  12272.69  32.49
996.1  38356.88  12592.06  32.83
997.1  37945.80  12355.46  32.56
998.0  38542.50  12219.40  31.70
999.0  38301.25  12188.95  31.82
1000.0  38064.02  12100.48  31.79
1000.9  38955.51  12119.49  31.11
1001.9  38313.61  12136.02  31.68
1002.8  38469.11  11903.12  30.94
1003.8  38840.71  12132.27  31.24
1004.8  39018.78  11987.06  30.72
961.5  34418.44  10151.51  29.49
965.5  34203.70  9922.77  29.01
969.5  33124.73  9709.72  29.31
973.4  31599.68  9496.43  30.05
977.4  30418.99  9352.12  30.74
981.4  29806.10  9227.52  30.96
985.3  29606.90  9222.11  31.15
989.3  29665.19  9382.81  31.63
993.3  29713.32  9564.31  32.19
997.2  29668.74  9699.21  32.69
1001.2  29627.00  9843.51  33.22
1005.2  29568.23  10010.15  33.85
1009.1  29600.49  10190.34  34.43
1013.1  29702.49  10429.62  35.11
1017.1  29789.49  10685.22  35.87
1021.0  29789.99  10885.06  36.54
1025.0  29760.59  11082.32  37.24
1029.0  29636.30  11248.76  37.96
1032.9  29533.53  11402.65  38.61
1036.9  29509.70  11588.55  39.27
1040.9  29556.91  11794.49  39.90
1044.8  29679.34  12027.22  40.52
1048.8  29786.37  12247.25  41.12
1052.7  29868.84  12427.26  41.61
1056.7  29898.31  12552.07  41.98
1060.7  29913.73  12644.82  42.27
1064.6  29918.21  12725.91  42.54
1068.6  29859.11  12744.32  42.68
1072.5  29814.52  12726.48  42.69
1076.5  29798.83  12704.31  42.63
1080.4  29797.49  12644.90  42.44
1084.4  29858.05  12588.64  42.16
1088.3  29928.60  12528.44  41.86
1092.3  29919.24  12381.34  41.38
1096.2  29930.07  12237.50  40.89
1100.2  29956.02  12114.52  40.44
1104.1  29873.92  11931.28  39.94
1108.1  29858.25  11773.00  39.43
1112.0  29809.22  11571.78  38.82
1116.0  29674.06  11313.47  38.13
1119.9  29580.84  11035.08  37.30
1123.9  29636.88  10740.63  36.24
1127.8  29621.76  10311.68  34.81
1131.8  29615.13  9754.87  32.94
1135.7  29658.37  9105.21  30.70
1139.6  29649.41  8399.59  28.33
1143.6  29635.32  7741.99  26.12
1147.5  29635.02  7207.98  24.32
1151.4  29535.85  6797.32  23.01
1155.4  29547.88  6533.16  22.11
1159.3  29582.50  6361.79  21.51
1163.2  29498.44  6231.27  21.12
1167.2  29505.90  6165.50  20.90
1171.1  29517.01  6114.46  20.72
1175.0  29484.53  6063.90  20.57
1179.0  29486.15  6017.56  20.41
1182.9  29537.81  5979.75  20.24
1186.8  29538.86  5950.06  20.14
1190.7  29410.97  5899.13  20.06
1194.7  29255.48  5843.68  19.97
1198.6  29133.72  5813.12  19.95
1202.5  29044.69  5806.17  19.99
1206.4  28972.03  5813.66  20.07
1210.3  28920.11  5835.66  20.18
1214.2  28863.76  5864.81  20.32
1218.2  28763.18  5883.71  20.46
1222.1  28692.28  5921.20  20.64
1226.0  28656.56  5969.17  20.83
1229.9  28600.92  5996.42  20.97
1233.8  28545.33  6035.52  21.14
1237.7  28520.81  6080.45  21.32
1241.6  28465.46  6112.23  21.47
1245.5  28370.21  6127.60  21.60
1249.4  28299.76  6139.75  21.70
1253.3  28232.22  6156.72  21.81
1257.2  28191.00  6176.38  21.91
1261.1  28130.65  6185.81  21.99
1265.0  28057.45  6165.79  21.98
1268.9  27949.80  6128.19  21.93
1272.8  27989.85  6125.60  21.89
1276.7  28109.94  6116.05  21.76
1280.6  28175.48  6069.41  21.54
1284.5  28132.96  5989.88  21.29
1288.4  28112.11  5901.55  20.99
1292.3  28036.25  5789.67  20.65
1296.2  27954.20  5651.45  20.22
1300.1  27848.52  5491.68  19.72
1303.9  27706.57  5312.43  19.17
1307.8  27559.31  5119.74  18.58
1311.7  27397.23  4908.22  17.92
1315.6  27238.78  4690.02  17.22
1319.5  27066.08  4461.39  16.48
1323.3  26913.00  4230.24  15.72
1327.2  26776.06  4006.79  14.96
1331.1  26621.95  3792.41  14.25
1335.0  26429.02  3580.03  13.55
1338.8  26290.11  3388.20  12.89
1342.7  26169.42  3220.69  12.31
1346.5  25929.13  3053.95  11.78
1350.4  25728.90  2906.48  11.30
1354.3  25457.85  2768.05  10.87
1358.1  25158.95  2630.41  10.46
1362.0  24980.59  2497.04  10.00
1365.8  24927.82  2374.92  9.53
1369.7  24996.19  2256.13  9.03
1373.5  24961.93  2100.79  8.42
1377.4  24802.90  1912.64  7.71
1381.2  24660.90  1708.69  6.93
1385.1  24643.85  1512.70  6.14
1389.0  24592.75  1337.38  5.44
1392.8  24461.78  1183.85  4.84
1396.6  24365.22  1063.39  4.36
1400.5  24231.60  969.20  4.00
1404.3  24125.27  904.71  3.75
