/*** Spectra Vista SIG Data ***/
name= RS1.sig
comm= Resampled spectral data SIG file reprocesed for matching/overlap;Averaged Ref/Tar of files: RD4S1,RD4S2,RD4S3
data=
346.0  300.98  122.73  40.78
356.0  463.72  151.42  32.65
366.0  636.68  176.34  27.70
376.0  885.46  203.62  23.00
386.0  1110.03  222.21  20.02
396.0  1411.36  275.14  19.49
406.0  1724.09  290.21  16.83
416.0  2114.15  348.29  16.47
426.0  2411.20  374.70  15.54
436.0  2948.34  439.96  14.92
446.0  3434.75  508.76  14.81
456.0  3900.43  546.95  14.02
466.0  4655.33  651.70  14.00
476.0  5313.35  709.51  13.35
486.0  5742.38  763.59  13.30
496.0  6668.62  895.25  13.42
506.0  7414.48  1022.59  13.79
516.0  7736.05  1079.24  13.95
526.0  8614.28  1229.96  14.28
536.0  9808.20  1438.41  14.67
546.0  10787.45  1611.21  14.94
556.0  10874.02  1693.96  15.58
566.0  11620.97  1966.87  16.93
576.0  12831.36  2490.73  19.41
586.0  13800.83  3183.89  23.07
596.0  14570.41  3983.00  27.34
606.0  14819.23  4861.64  32.81
616.0  15785.73  6168.90  39.08
626.0  17422.26  7681.35  44.09
636.0  17172.91  8419.61  49.03
646.0  17313.58  9090.35  52.50
656.0  16958.91  8885.61  52.39
666.0  17952.46  8321.55  46.35
676.0  19107.41  8387.27  43.90
686.0  20744.30  11672.19  56.27
696.0  21302.17  17189.85  80.70
706.0  21485.54  20143.25  93.75
716.0  21106.17  20899.18  99.02
726.0  20444.90  20674.12  101.12
736.0  20072.78  20344.96  101.36
746.0  21269.54  21786.47  102.43
756.0  21715.17  22128.82  101.90
766.0  22630.30  23424.37  103.51
776.0  23222.43  24167.36  104.07
786.0  23351.40  24558.97  105.17
796.0  22865.98  23857.56  104.34
806.0  22206.84  23233.62  104.62
816.0  22105.85  23170.70  104.82
826.0  21970.10  22731.89  103.47
836.0  22256.75  22746.29  102.20
846.0  22764.08  23329.52  102.48
856.0  23134.08  23526.87  101.70
866.0  23280.52  23663.29  101.64
876.0  23337.25  23605.73  101.15
886.0  23426.87  23370.98  99.76
896.0  23219.08  22842.19  98.38
906.0  23187.39  22518.05  97.11
916.0  23019.76  21983.94  95.50
926.0  22972.36  21286.20  92.66
936.0  23654.47  20910.37  88.40
946.0  24257.59  20272.73  83.57
956.0  24792.19  19356.50  78.07
966.0  25310.85  19065.33  75.32
976.0  25805.97  19191.34  74.37
986.0  26419.21  17729.84  67.11
996.0  26647.14  18475.39  69.33
1006.0  26606.80  18915.10  71.09
1016.0  26773.23  19618.77  73.28
1026.0  26768.69  20203.35  75.47
1036.0  26610.23  20610.23  77.45
1046.0  26817.96  21314.21  79.48
1056.0  26974.32  21879.56  81.11
1066.0  27001.14  22110.76  81.89
1076.0  26907.02  22059.10  81.98
1086.0  27000.17  21939.81  81.26
1096.0  27021.97  21601.07  79.94
1106.0  26988.71  21151.85  78.37
1116.0  26827.19  20513.59  76.47
1126.0  26782.22  19609.95  73.22
1136.0  26806.48  18000.63  67.15
1146.0  26783.32  16076.24  60.02
1156.0  26689.55  14877.24  55.74
1166.0  26634.11  14403.11  54.08
1176.0  26621.63  14202.40  53.35
1186.0  26686.27  14064.73  52.70
1196.0  26376.31  13787.06  52.27
1206.0  26163.12  13673.11  52.26
1216.0  26024.95  13713.62  52.69
1226.0  25846.71  13822.34  53.48
1236.0  25752.82  13947.87  54.16
1246.0  25614.66  14029.18  54.77
1256.0  25475.83  14044.93  55.13
1266.0  25314.04  14027.56  55.41
1276.0  25373.13  14004.04  55.19
1286.0  25403.93  13835.81  54.46
1296.0  25257.97  13447.92  53.24
1306.0  24949.96  12823.62  51.40
1316.0  24591.02  12052.21  49.01
1326.0  24232.82  11177.77  46.13
1336.0  23855.58  10285.33  43.11
1346.0  23503.73  9517.15  40.49
1356.0  22973.78  8848.20  38.51
1366.0  22619.97  8190.77  36.21
1376.0  22547.29  7470.83  33.13
1386.0  22336.04  6274.09  28.09
1396.0  22099.31  5094.06  23.05
1406.0  21849.51  4261.53  19.50
1416.0  21811.39  3821.65  17.52
1426.0  21760.87  3599.18  16.54
1436.0  21688.98  3487.71  16.08
1446.0  21571.09  3431.57  15.91
1456.0  21448.73  3403.48  15.87
1466.0  21345.12  3429.41  16.07
1476.0  21146.04  3493.14  16.52
1486.0  21006.72  3635.56  17.31
1496.0  20823.92  3810.82  18.30
1506.0  20651.18  3939.78  19.08
1516.0  20455.77  4038.38  19.74
1526.0  20257.55  4155.64  20.51
1536.0  20096.43  4293.62  21.37
1546.0  19894.80  4434.90  22.29
1556.0  19746.35  4535.86  22.97
1566.0  19580.39  4643.57  23.72
1576.0  19339.02  4762.91  24.63
1586.0  19146.44  4851.90  25.34
1596.0  18933.87  4889.25  25.82
1606.0  18729.11  4953.31  26.45
1616.0  18504.97  5009.98  27.07
1626.0  18305.91  5058.01  27.63
1636.0  18069.01  5082.09  28.13
1646.0  17818.51  5048.59  28.33
1656.0  17552.22  4992.28  28.44
1666.0  17298.94  4927.15  28.48
1676.0  17076.69  4863.80  28.48
1686.0  17060.73  4840.12  28.37
1696.0  16861.46  4741.87  28.12
1706.0  16611.03  4601.73  27.70
1716.0  16237.09  4394.88  27.07
1726.0  15996.13  4239.10  26.50
1736.0  15803.28  4132.86  26.15
1746.0  15603.66  4021.64  25.77
1756.0  15326.26  3853.10  25.14
1766.0  15088.96  3726.61  24.70
1776.0  14960.65  3661.16  24.47
1786.0  14796.56  3586.98  24.24
1796.0  14599.28  3541.79  24.26
1806.0  14432.56  3515.86  24.36
1816.0  14220.87  3483.64  24.50
1826.0  13958.76  3427.84  24.56
1836.0  13625.22  3348.64  24.58
1846.0  13402.12  3289.97  24.55
1856.0  13193.00  3212.61  24.35
1866.0  13077.36  2852.84  21.82
1876.0  12862.98  2320.96  18.04
1886.0  12714.37  1977.87  15.56
1896.0  12428.70  1817.93  14.63
1906.0  11584.61  1015.66  8.77
1916.0  11419.95  970.57  8.50
1926.0  11288.15  965.43  8.55
1936.0  11206.69  954.37  8.52
1946.0  11198.13  946.65  8.45
1956.0  11063.98  964.50  8.72
1966.0  11075.86  975.34  8.81
1976.0  10974.82  986.53  8.99
1986.0  10831.42  997.84  9.21
1996.0  10659.46  1020.24  9.57
2006.0  10562.82  1056.84  10.01
2016.0  10412.68  1051.53  10.10
2026.0  10222.99  1056.45  10.33
2036.0  10070.22  1070.67  10.63
2046.0  9949.56  1078.28  10.84
2056.0  9753.19  1091.99  11.20
2066.0  9593.30  1080.72  11.27
2076.0  9443.55  1095.18  11.60
2086.0  9354.07  1108.70  11.85
2096.0  9210.37  1109.43  12.05
2106.0  9026.55  1111.40  12.31
2116.0  8990.49  1137.53  12.65
2126.0  8894.38  1137.82  12.79
2136.0  8704.97  1135.60  13.05
2146.0  8486.07  1134.88  13.37
2156.0  8343.29  1139.01  13.65
2166.0  8183.41  1114.55  13.62
2176.0  8051.70  1107.97  13.76
2186.0  7958.55  1129.69  14.19
2196.0  7908.78  1118.49  14.14
2206.0  7862.30  1121.81  14.27
2216.0  7807.07  1116.24  14.30
2226.0  7710.20  1088.26  14.11
2236.0  7642.35  1050.59  13.75
2246.0  7476.81  1032.06  13.80
2256.0  7391.85  975.46  13.20
2266.0  7320.92  955.44  13.05
2276.0  7252.25  936.46  12.91
2286.0  7189.78  906.74  12.61
2296.0  7136.98  865.03  12.12
2306.0  6908.51  807.52  11.69
2316.0  6711.36  801.28  11.94
2326.0  6670.62  799.53  11.99
2336.0  6631.35  785.31  11.84
2346.0  6585.90  759.93  11.54
2356.0  6421.23  720.31  11.22
2366.0  6363.62  721.78  11.34
2376.0  6263.23  709.87  11.33
2386.0  6151.80  685.62  11.14
2396.0  6055.25  663.63  10.96
2406.0  5958.69  648.09  10.88
2416.0  5857.57  633.93  10.82
2426.0  5766.53  617.48  10.71
2436.0  5600.60  606.64  10.83
2446.0  5521.33  575.85  10.43
2456.0  5420.45  554.45  10.23
2466.0  5315.59  544.55  10.24
2476.0  5191.59  563.01  10.84
2486.0  5020.73  519.17  10.34
2496.0  4966.51  506.95  10.21
2506.0  5248.23  596.05  11.36
