/*** Spectra Vista SIG Data ***/
name= GB.sig
comm= Resampled spectral data SIG file reprocesed for matching/overlap;Averaged Ref/Tar of files: GD5B1,GD5B2,GD5B3
data=
346.0  366.28  107.01  29.22
356.0  580.02  126.23  21.76
366.0  764.64  136.40  17.84
376.0  1054.72  145.67  13.81
386.0  1321.48  144.32  10.92
396.0  1668.03  190.89  11.44
406.0  2032.56  197.90  9.74
416.0  2484.09  261.73  10.54
426.0  2825.64  301.56  10.67
436.0  3449.00  372.86  10.81
446.0  4016.12  456.57  11.37
456.0  4559.32  557.64  12.23
466.0  5430.31  735.70  13.55
476.0  6200.82  853.94  13.77
486.0  6683.18  980.28  14.67
496.0  7759.25  1353.22  17.44
506.0  8620.16  1872.72  21.72
516.0  8958.85  2409.70  26.90
526.0  9944.82  3173.57  31.91
536.0  11306.85  4059.89  35.91
546.0  12443.50  4868.68  39.13
556.0  12537.38  5256.43  41.93
566.0  13373.89  5877.33  43.95
576.0  14717.24  6649.26  45.18
586.0  15778.76  7227.31  45.80
596.0  16643.71  7726.78  46.42
606.0  16939.11  7935.71  46.85
616.0  18066.83  8358.93  46.27
626.0  19907.23  8925.30  44.83
636.0  19564.29  9187.10  46.96
646.0  19659.63  9062.62  46.10
656.0  19192.34  7752.51  40.39
666.0  20282.32  7349.86  36.24
676.0  21596.49  7082.70  32.80
686.0  23461.59  8734.68  37.23
696.0  24117.97  12440.62  51.58
706.0  24329.51  15194.33  62.45
716.0  23886.32  16297.38  68.23
726.0  23086.04  16529.40  71.60
736.0  22569.89  16413.56  72.72
746.0  23814.03  17551.31  73.70
756.0  24266.56  18183.08  74.93
766.0  25278.75  19084.40  75.50
776.0  25925.56  19767.67  76.25
786.0  26060.85  20072.90  77.02
796.0  25580.60  20071.23  78.46
806.0  24835.91  19680.72  79.24
816.0  24700.16  19631.40  79.48
826.0  24523.61  19332.38  78.83
836.0  24895.68  19239.10  77.28
846.0  25503.02  19541.11  76.62
856.0  25926.24  19887.31  76.71
866.0  26083.86  19929.47  76.41
876.0  26142.33  19873.27  76.02
886.0  26278.55  19811.13  75.39
896.0  26059.51  19439.17  74.60
906.0  26042.54  19123.72  73.43
916.0  25872.97  18583.32  71.83
926.0  25848.12  17821.79  68.95
936.0  26639.41  17202.10  64.57
946.0  27323.34  16289.95  59.62
956.0  27983.10  15151.56  54.15
966.0  28580.08  14771.17  51.68
976.0  29061.46  14791.72  50.90
986.0  29600.63  16038.31  54.18
996.0  29854.54  16494.61  55.25
1006.0  29773.67  17064.87  57.32
1016.0  29961.72  17847.42  59.57
1026.0  29958.18  18604.04  62.10
1036.0  29727.72  19235.08  64.70
1046.0  29945.01  20033.27  66.90
1056.0  30102.43  20650.04  68.60
1066.0  30105.99  20942.55  69.56
1076.0  29996.46  20896.89  69.66
1086.0  30084.70  20727.95  68.90
1096.0  30105.40  20307.86  67.46
1106.0  30068.25  19723.10  65.59
1116.0  29868.35  18985.75  63.56
1126.0  29809.45  17956.46  60.24
1136.0  29822.39  16130.60  54.09
1146.0  29809.91  14052.91  47.14
1156.0  29735.93  12766.46  42.93
1166.0  29672.84  12273.73  41.36
1176.0  29648.36  12080.55  40.75
1186.0  29704.47  11976.81  40.32
1196.0  29371.18  11768.85  40.07
1206.0  29121.56  11701.84  40.18
1216.0  28966.90  11750.07  40.56
1226.0  28785.60  11862.00  41.21
1236.0  28657.09  11970.49  41.77
1246.0  28484.90  12035.33  42.25
1256.0  28333.73  12074.04  42.61
1266.0  28154.79  12029.85  42.73
1276.0  28214.44  11977.50  42.45
1286.0  28244.54  11783.88  41.72
1296.0  28080.90  11389.18  40.56
1306.0  27749.33  10775.28  38.83
1316.0  27339.86  10028.85  36.68
1326.0  26940.91  9198.48  34.14
1336.0  26516.39  8389.55  31.64
1346.0  26100.07  7697.15  29.49
1356.0  25456.23  7065.08  27.75
1366.0  25028.25  6521.32  26.06
1376.0  24975.46  5882.34  23.55
1386.0  24740.24  4965.46  20.07
1396.0  24477.47  4021.16  16.43
1406.0  24216.63  3370.15  13.92
1416.0  24200.46  3006.19  12.42
1426.0  24158.30  2828.52  11.71
1436.0  24072.41  2745.08  11.40
1446.0  23956.60  2702.36  11.28
1456.0  23813.94  2674.94  11.23
1466.0  23700.42  2695.07  11.37
1476.0  23484.85  2752.45  11.72
1486.0  23331.72  2871.84  12.31
1496.0  23130.98  3027.43  13.09
1506.0  22945.06  3121.55  13.60
1516.0  22702.48  3208.02  14.13
1526.0  22502.83  3264.35  14.51
1536.0  22328.41  3326.06  14.90
1546.0  22104.85  3449.11  15.60
1556.0  21942.04  3567.19  16.26
1566.0  21758.45  3692.07  16.97
1576.0  21478.18  3794.58  17.67
1586.0  21278.88  3865.55  18.17
1596.0  21035.80  3907.19  18.57
1606.0  20794.20  3954.98  19.02
1616.0  20552.01  3990.29  19.42
1626.0  20323.44  4029.12  19.83
1636.0  20065.83  4032.52  20.10
1646.0  19774.62  4036.38  20.41
1656.0  19480.49  4012.66  20.60
1666.0  19194.30  3967.06  20.67
1676.0  18944.19  3900.29  20.59
1686.0  18931.40  3854.94  20.36
1696.0  18711.77  3756.02  20.07
1706.0  18450.64  3635.46  19.70
1716.0  18035.90  3459.77  19.18
1726.0  17776.34  3315.97  18.65
1736.0  17557.88  3231.97  18.41
1746.0  17326.38  3129.33  18.06
1756.0  17015.40  2997.53  17.62
1766.0  16759.66  2895.15  17.27
1776.0  16615.26  2827.94  17.02
1786.0  16444.78  2756.63  16.76
1796.0  16217.15  2703.26  16.67
1806.0  16004.96  2669.23  16.68
1816.0  15766.24  2623.52  16.64
1826.0  15451.08  2569.01  16.63
1836.0  15063.08  2481.15  16.47
1846.0  14855.31  2382.15  16.04
1856.0  14691.59  2248.75  15.31
1866.0  14522.35  2062.46  14.20
1876.0  14253.69  1769.73  12.42
1886.0  14110.56  1458.50  10.34
1896.0  13808.32  1262.71  9.14
1906.0  12793.00  1056.17  8.26
1916.0  12616.65  978.09  7.75
1926.0  12521.17  967.52  7.73
1936.0  12420.38  971.76  7.82
1946.0  12399.95  990.14  7.99
1956.0  12267.23  1005.22  8.19
1966.0  12255.75  1023.53  8.35
1976.0  12167.54  1059.16  8.70
1986.0  11984.38  1067.39  8.91
1996.0  11804.14  1092.70  9.26
2006.0  11722.12  1113.40  9.50
2016.0  11520.71  1124.03  9.76
2026.0  11331.47  1142.25  10.08
2036.0  11153.81  1153.60  10.34
2046.0  11015.78  1144.23  10.39
2056.0  10803.98  1141.47  10.57
2066.0  10617.95  1158.40  10.91
2076.0  10467.51  1162.22  11.10
2086.0  10367.19  1181.39  11.40
2096.0  10196.33  1175.24  11.53
2106.0  9977.58  1187.45  11.90
2116.0  9951.76  1209.41  12.15
2126.0  9831.36  1206.82  12.28
2136.0  9625.43  1206.64  12.54
2146.0  9388.88  1182.08  12.59
2156.0  9207.43  1189.27  12.92
2166.0  9064.45  1165.98  12.86
2176.0  8911.97  1156.36  12.98
2186.0  8812.47  1142.29  12.96
2196.0  8746.91  1133.46  12.96
2206.0  8717.01  1146.32  13.15
2216.0  8632.54  1140.40  13.21
2226.0  8558.94  1097.15  12.82
2236.0  8436.18  1070.20  12.69
2246.0  8282.68  1031.52  12.45
2256.0  8199.17  988.06  12.05
2266.0  8120.13  940.01  11.58
2276.0  8038.92  915.97  11.39
2286.0  7958.54  887.87  11.16
2296.0  7926.13  859.71  10.85
2306.0  7675.85  779.26  10.15
2316.0  7429.53  747.99  10.07
2326.0  7404.63  743.08  10.04
2336.0  7366.33  722.32  9.81
2346.0  7276.21  700.81  9.63
2356.0  7132.49  639.40  8.96
2366.0  7038.59  634.27  9.01
2376.0  6898.87  620.83  9.00
2386.0  6807.05  586.14  8.61
2396.0  6685.66  590.21  8.83
2406.0  6574.61  548.30  8.34
2416.0  6463.16  522.15  8.08
2426.0  6354.84  495.85  7.80
2436.0  6210.96  469.64  7.56
2446.0  6104.75  463.70  7.60
2456.0  6017.59  437.55  7.27
2466.0  5854.98  408.87  6.98
2476.0  5727.20  405.42  7.08
2486.0  5577.85  396.16  7.10
2496.0  5547.28  354.14  6.38
2506.0  5804.94  328.64  5.66
