/*** Spectra Vista SIG Data ***/
name= GS3.sig
comm= SIG file reprocesed for matching/overlap;Averaged Ref/Tar of files: GD5S7,GD5S8,GD5S9
data=
346.4  366.28  98.31  26.84
347.9  400.03  92.66  23.16
349.5  432.12  98.17  22.72
351.1  468.00  98.80  21.11
352.6  496.51  99.73  20.09
354.2  520.33  101.66  19.54
355.7  575.84  107.09  18.60
357.3  598.14  119.52  19.98
358.8  616.87  115.57  18.73
360.4  668.33  120.77  18.07
361.9  686.05  123.98  18.07
363.5  715.01  119.57  16.72
365.1  743.78  117.43  15.79
366.6  778.54  121.30  15.58
368.2  824.27  119.08  14.45
369.7  873.39  121.46  13.91
371.3  928.49  123.36  13.29
372.8  977.74  130.59  13.36
374.4  1016.27  136.62  13.44
375.9  1052.58  133.72  12.70
377.4  1084.71  130.97  12.07
379.0  1129.79  131.97  11.68
380.5  1157.14  136.44  11.79
382.1  1186.43  130.22  10.98
383.6  1234.64  134.00  10.85
385.2  1293.88  132.55  10.24
386.7  1345.63  136.10  10.11
388.3  1410.38  143.12  10.15
389.8  1464.46  145.49  9.93
391.3  1527.57  155.40  10.17
392.9  1567.60  162.54  10.37
394.4  1609.87  171.92  10.68
395.9  1662.63  182.33  10.97
397.5  1749.05  189.28  10.82
399.0  1827.74  191.79  10.49
400.6  1876.29  191.12  10.19
402.1  1904.04  191.78  10.07
403.6  1943.17  194.20  9.99
405.1  1994.81  198.65  9.96
406.7  2061.92  203.69  9.88
408.2  2135.06  214.14  10.03
409.7  2198.56  222.06  10.10
411.3  2272.05  229.50  10.10
412.8  2335.64  240.32  10.29
414.3  2399.77  251.11  10.46
415.8  2475.00  263.67  10.65
417.4  2547.71  272.90  10.71
418.9  2612.23  277.46  10.62
420.4  2658.25  286.31  10.77
421.9  2705.56  287.01  10.61
423.5  2743.63  291.41  10.62
425.0  2788.02  294.87  10.58
426.5  2844.45  299.28  10.52
428.0  2917.63  303.22  10.39
429.5  3009.90  316.13  10.50
431.1  3112.45  323.92  10.41
432.6  3227.88  333.87  10.34
434.1  3329.29  344.32  10.34
435.6  3423.98  356.94  10.42
437.1  3517.80  365.17  10.38
438.6  3607.74  379.64  10.52
440.1  3694.39  388.04  10.50
441.6  3790.73  401.70  10.60
443.1  3873.83  414.18  10.69
444.7  3959.99  427.58  10.80
446.2  4024.76  445.28  11.06
447.7  4101.41  456.67  11.13
449.2  4174.20  468.29  11.22
450.7  4238.00  482.70  11.39
452.2  4313.18  493.08  11.43
453.7  4393.64  509.71  11.60
455.2  4491.99  530.00  11.80
456.7  4618.24  549.59  11.90
458.2  4761.06  573.53  12.05
459.7  4899.13  599.78  12.24
461.2  5044.37  626.93  12.43
462.7  5165.05  647.14  12.53
464.2  5287.79  670.39  12.68
465.7  5408.14  696.68  12.88
467.2  5518.98  713.28  12.92
468.7  5631.00  738.67  13.12
470.2  5705.20  760.98  13.34
471.7  5821.13  779.79  13.40
473.2  6011.22  795.37  13.23
474.6  6153.75  806.91  13.11
476.1  6204.18  813.37  13.11
477.6  6220.94  823.58  13.24
479.1  6250.52  832.28  13.32
480.6  6293.37  844.30  13.42
482.1  6374.96  862.80  13.53
483.6  6474.12  885.54  13.68
485.1  6599.29  911.67  13.81
486.6  6739.10  946.87  14.05
488.0  6898.13  988.33  14.33
489.5  7058.36  1033.38  14.64
491.0  7224.81  1078.01  14.92
492.5  7392.87  1134.22  15.34
494.0  7557.79  1188.43  15.72
495.4  7702.20  1248.28  16.21
496.9  7844.83  1306.16  16.65
498.4  7990.29  1368.44  17.13
499.9  8131.50  1432.74  17.62
501.4  8263.45  1502.33  18.18
502.8  8392.79  1567.96  18.68
504.3  8499.60  1638.72  19.28
505.8  8611.18  1708.96  19.85
507.2  8674.01  1772.12  20.43
508.7  8728.20  1837.27  21.05
510.2  8764.92  1905.84  21.74
511.6  8789.76  1959.02  22.29
513.1  8840.43  2027.08  22.93
514.6  8904.34  2094.10  23.52
516.0  8958.85  2161.10  24.12
517.5  9056.55  2238.51  24.72
519.0  9171.31  2327.12  25.37
520.5  9287.32  2407.19  25.92
521.9  9437.16  2502.92  26.52
523.4  9612.27  2603.04  27.08
524.8  9785.79  2700.95  27.60
526.3  9984.58  2809.24  28.14
527.8  10184.06  2913.20  28.61
529.2  10366.76  3013.23  29.07
530.7  10567.61  3120.31  29.53
532.1  10746.40  3217.05  29.94
533.6  10959.02  3327.74  30.37
535.0  11168.56  3433.12  30.74
536.5  11376.00  3545.05  31.16
538.0  11592.92  3657.67  31.55
539.4  11785.91  3767.63  31.97
540.9  12037.93  3886.60  32.29
542.3  12246.63  3990.64  32.59
543.8  12400.56  4081.54  32.91
545.2  12445.48  4139.50  33.26
546.6  12442.01  4186.79  33.65
548.1  12455.19  4231.30  33.97
549.5  12460.55  4274.67  34.31
551.0  12456.77  4313.55  34.63
552.4  12484.13  4357.96  34.91
553.9  12491.52  4397.19  35.20
555.3  12509.64  4436.76  35.47
556.8  12569.08  4488.72  35.71
558.2  12630.94  4543.20  35.97
559.6  12713.51  4603.20  36.21
561.1  12831.00  4676.43  36.45
562.5  12959.42  4756.86  36.71
564.0  13129.35  4846.29  36.91
565.4  13288.41  4936.60  37.15
566.8  13487.87  5033.94  37.32
568.3  13678.39  5130.44  37.51
569.7  13879.32  5227.84  37.67
571.1  14074.77  5321.27  37.81
572.6  14269.77  5411.34  37.92
574.0  14463.08  5498.35  38.02
575.4  14650.03  5586.42  38.13
576.9  14818.07  5666.32  38.24
578.3  14977.46  5740.14  38.33
579.7  15131.24  5817.40  38.45
581.1  15254.19  5880.86  38.55
582.6  15387.18  5947.77  38.65
584.0  15508.86  6012.89  38.77
585.4  15681.05  6087.93  38.82
586.8  15909.04  6178.59  38.84
588.3  16162.38  6276.19  38.83
589.7  16371.81  6364.02  38.87
591.1  16519.39  6425.31  38.90
592.5  16589.78  6463.81  38.96
594.0  16627.80  6491.28  39.04
595.4  16637.76  6504.54  39.10
596.8  16651.64  6519.08  39.15
598.2  16659.51  6530.31  39.20
599.6  16659.36  6535.96  39.23
601.0  16705.59  6557.34  39.25
602.4  16752.94  6575.83  39.25
603.9  16822.23  6602.85  39.25
605.3  16905.11  6633.50  39.24
606.7  16973.10  6657.24  39.22
608.1  17114.04  6701.44  39.16
609.5  17255.15  6754.44  39.14
610.9  17434.91  6814.57  39.09
612.3  17598.49  6865.98  39.01
613.7  17818.60  6931.40  38.90
615.1  17967.42  6970.21  38.79
616.5  18122.06  7011.50  38.69
617.9  18356.64  7091.71  38.63
619.3  18578.68  7170.39  38.59
620.7  18848.67  7279.88  38.62
622.1  19119.58  7316.00  38.26
623.5  19414.06  7329.65  37.75
624.9  19741.18  7355.52  37.26
626.3  19952.52  7370.76  36.94
627.7  19741.37  7284.91  36.90
629.1  19544.02  7248.63  37.09
630.5  19457.12  7252.09  37.27
631.9  19461.81  7284.98  37.43
633.3  19457.49  7327.07  37.66
634.7  19533.17  7423.05  38.00
636.1  19566.68  7493.53  38.30
637.5  19597.55  7570.68  38.63
638.9  19677.50  7652.32  38.89
640.2  19731.43  7715.67  39.10
641.6  19754.28  7741.97  39.19
643.0  19715.36  7728.94  39.20
644.4  19707.26  7708.71  39.12
645.8  19650.11  7656.07  38.96
647.2  19716.78  7645.64  38.78
648.5  19765.84  7630.13  38.60
649.9  19671.60  7576.95  38.52
651.3  19608.23  7553.10  38.52
652.7  19503.68  7506.18  38.49
654.1  19390.95  7336.87  37.84
655.5  19238.75  7128.55  37.05
656.8  19118.09  6928.39  36.24
658.2  19225.93  6822.21  35.48
659.6  19449.31  6760.53  34.76
660.9  19643.18  6686.60  34.04
662.3  19825.21  6605.79  33.32
663.7  20008.80  6518.40  32.58
665.0  20165.89  6429.65  31.88
666.4  20328.89  6354.00  31.26
667.8  20535.62  6300.22  30.68
669.1  20711.76  6247.47  30.16
670.5  20914.18  6216.42  29.72
671.9  21055.86  6181.74  29.36
673.2  21237.33  6185.04  29.12
674.6  21400.77  6200.89  28.98
676.0  21596.49  6247.62  28.93
677.3  21793.24  6312.65  28.97
678.7  21992.69  6410.28  29.15
680.0  22269.19  6558.65  29.45
681.4  22542.00  6760.42  29.99
682.8  22829.63  7009.88  30.71
684.1  23112.18  7323.11  31.69
685.5  23364.31  7686.40  32.90
686.8  23617.23  8101.76  34.30
688.2  23841.32  8538.70  35.81
689.5  23927.84  8964.54  37.46
690.9  23997.39  9411.83  39.22
692.2  24047.78  9849.97  40.96
693.6  24110.83  10289.16  42.67
694.9  24095.99  10684.74  44.34
696.2  24121.97  11072.43  45.90
697.6  24149.95  11431.43  47.34
698.9  24174.48  11783.90  48.75
700.3  24215.57  12115.75  50.03
701.6  24264.40  12432.40  51.24
703.0  24323.35  12725.98  52.32
704.3  24329.34  12960.55  53.27
705.6  24327.41  13184.05  54.19
707.0  24334.75  13381.06  54.99
708.3  24282.08  13533.85  55.74
709.6  24223.21  13661.34  56.40
711.0  24124.28  13755.25  57.02
712.3  24015.02  13832.63  57.60
713.6  23977.17  13942.07  58.15
714.9  23907.38  14029.22  58.68
716.3  23880.58  14124.70  59.15
717.6  23876.83  14235.29  59.62
718.9  23805.06  14291.28  60.03
720.2  23675.16  14293.48  60.37
721.6  23576.15  14318.91  60.73
722.9  23446.45  14330.17  61.12
724.2  23274.82  14307.98  61.47
725.5  23133.68  14306.39  61.84
726.8  23009.81  14289.21  62.10
728.1  22933.91  14297.84  62.34
729.5  22856.87  14309.43  62.60
730.8  22796.53  14326.80  62.85
732.1  22719.29  14333.19  63.09
733.4  22660.56  14343.98  63.30
734.7  22602.67  14350.79  63.49
736.0  22569.89  14387.09  63.74
737.3  22520.76  14400.22  63.94
738.6  22554.56  14470.87  64.16
739.9  22633.16  14591.56  64.47
741.2  22698.59  14678.66  64.67
742.5  22841.25  14821.10  64.89
743.8  23091.34  15045.42  65.16
745.1  23491.07  15351.87  65.35
746.4  23957.57  15704.39  65.55
747.7  24466.55  16044.84  65.58
749.0  24948.63  16381.68  65.66
750.3  25229.30  16565.95  65.66
751.6  25175.69  16535.83  65.68
752.9  24925.64  16392.95  65.77
754.2  24630.59  16241.37  65.94
755.4  24314.44  16080.58  66.14
756.7  24210.69  16074.61  66.39
758.0  24235.24  16136.11  66.58
759.3  24394.18  16299.44  66.82
760.6  24621.52  16504.90  67.03
761.9  24823.09  16695.25  67.26
763.1  24955.30  16812.84  67.37
764.4  25125.21  16948.91  67.46
765.7  25257.38  17063.15  67.56
767.0  25349.99  17160.45  67.69
768.2  25431.84  17253.60  67.84
769.5  25509.93  17332.65  67.94
770.8  25646.87  17452.90  68.05
772.0  25674.66  17507.34  68.19
773.3  25762.96  17585.60  68.26
774.6  25839.71  17666.68  68.37
775.8  25921.43  17743.66  68.45
777.1  25948.26  17791.14  68.56
778.4  25918.05  17798.75  68.67
779.6  25945.86  17840.10  68.76
780.9  25904.00  17856.53  68.93
782.1  25811.51  17816.91  69.03
783.4  25819.04  17855.83  69.16
784.6  25849.06  17902.38  69.26
785.9  26028.56  18086.78  69.49
787.1  26416.14  18381.22  69.58
788.4  26716.91  18587.19  69.57
789.6  26732.54  18537.77  69.35
790.9  26499.75  18350.00  69.25
792.1  26215.36  18165.64  69.29
793.4  25939.41  18015.01  69.45
794.6  25766.06  17904.28  69.49
795.8  25608.38  17825.59  69.61
797.1  25427.85  17737.28  69.76
798.3  25301.10  17681.43  69.88
799.5  25235.55  17660.36  69.98
800.8  25155.70  17623.67  70.06
802.0  25074.70  17583.70  70.13
803.2  24986.56  17529.46  70.16
804.5  24925.76  17499.06  70.20
805.7  24855.66  17466.80  70.27
806.9  24776.64  17426.98  70.34
808.1  24708.89  17404.56  70.44
809.4  24677.19  17394.36  70.49
810.6  24617.78  17380.09  70.60
811.8  24606.91  17389.22  70.67
813.0  24601.75  17416.35  70.79
814.2  24620.30  17432.35  70.80
815.4  24684.78  17488.17  70.85
816.6  24715.54  17502.86  70.82
817.9  24752.29  17519.17  70.78
819.1  24717.85  17485.64  70.74
820.3  24615.89  17423.77  70.78
821.5  24558.22  17373.06  70.74
822.7  24525.20  17345.58  70.73
823.9  24512.51  17346.59  70.77
825.1  24512.73  17343.01  70.75
826.3  24527.23  17342.66  70.71
827.5  24554.23  17353.87  70.68
828.7  24585.24  17350.50  70.57
829.9  24620.63  17363.00  70.52
831.0  24677.45  17404.94  70.53
832.2  24735.00  17434.53  70.49
833.4  24800.15  17455.87  70.39
834.6  24827.34  17490.00  70.45
835.8  24886.58  17527.23  70.43
837.0  24941.18  17573.64  70.46
838.1  25036.55  17651.96  70.50
839.3  25073.20  17691.41  70.56
840.5  25138.07  17740.77  70.57
841.7  25214.76  17808.17  70.63
842.9  25311.78  17899.50  70.72
844.0  25352.29  17949.71  70.80
845.2  25454.19  18035.33  70.85
846.4  25527.43  18085.27  70.85
847.5  25656.16  18186.98  70.89
848.7  25745.00  18267.36  70.95
849.9  25879.71  18348.62  70.90
851.0  25913.04  18361.06  70.86
852.2  25966.07  18395.65  70.84
853.3  25941.98  18377.38  70.84
854.5  25934.86  18382.43  70.88
855.6  25916.94  18381.85  70.93
856.8  25944.85  18426.57  71.02
857.9  25943.54  18431.43  71.04
859.1  25996.60  18481.37  71.09
860.2  26027.46  18495.44  71.06
861.4  26023.97  18515.42  71.15
862.5  26059.24  18539.48  71.14
863.7  26115.12  18578.18  71.14
864.8  26101.25  18583.20  71.20
865.9  26082.46  18575.42  71.22
867.1  26099.25  18586.86  71.22
868.2  26099.69  18596.55  71.25
869.3  26128.19  18603.09  71.20
870.5  26099.47  18582.67  71.20
871.6  26087.08  18588.39  71.26
872.7  26136.21  18627.01  71.27
873.9  26148.82  18648.39  71.32
875.0  26142.73  18627.82  71.25
876.1  26142.29  18628.76  71.26
877.2  26184.05  18638.22  71.18
878.3  26169.01  18625.89  71.18
879.4  26191.11  18643.73  71.18
880.5  26214.48  18643.25  71.12
881.7  26220.35  18624.36  71.03
882.8  26271.44  18639.41  70.95
883.9  26272.50  18637.13  70.94
885.0  26275.91  18601.49  70.79
886.1  26278.81  18579.19  70.70
887.2  26194.66  18478.44  70.54
888.3  26154.69  18447.21  70.53
889.4  26083.75  18398.09  70.53
890.5  26060.47  18333.58  70.35
891.6  26043.45  18303.65  70.28
892.7  26025.13  18281.38  70.25
893.8  26046.70  18298.40  70.25
894.9  26070.72  18295.30  70.18
896.0  26059.51  18262.00  70.08
897.0  26054.12  18258.81  70.08
898.1  26079.30  18247.46  69.97
899.2  26095.96  18235.42  69.88
900.3  26052.56  18189.06  69.82
901.4  26029.33  18131.60  69.66
902.4  26018.83  18136.31  69.70
903.5  26017.27  18088.34  69.52
904.6  26012.16  18061.32  69.43
905.7  26050.43  18064.19  69.34
906.7  26024.14  18045.07  69.34
907.8  26076.86  18032.18  69.15
908.9  26057.48  17998.75  69.07
909.9  26017.06  17940.87  68.96
911.0  26009.49  17900.00  68.82
912.1  25979.15  17859.70  68.75
913.1  25944.88  17793.88  68.58
914.2  25856.17  17712.64  68.50
915.2  25844.13  17676.97  68.40
916.3  25883.78  17642.44  68.16
917.3  25847.25  17605.96  68.12
918.4  25819.06  17548.48  67.97
919.4  25792.96  17490.43  67.81
920.5  25804.34  17438.42  67.58
921.5  25824.68  17397.24  67.37
922.6  25820.42  17335.79  67.14
923.6  25802.74  17274.91  66.95
924.7  25837.63  17245.87  66.75
925.7  25830.51  17168.21  66.46
926.7  25889.20  17130.02  66.17
927.8  25949.67  17067.79  65.77
928.8  26061.51  17055.05  65.44
929.9  26114.55  17037.39  65.24
930.9  26214.58  17045.57  65.02
931.9  26363.30  17058.11  64.70
932.9  26568.63  17101.33  64.37
934.0  26604.58  17048.96  64.08
935.0  26610.78  16985.65  63.83
936.0  26639.41  16902.03  63.45
937.0  26632.91  16814.77  63.14
938.1  26589.57  16736.54  62.94
939.1  26594.73  16634.62  62.55
940.1  26647.30  16591.33  62.26
941.1  26757.94  16585.41  61.98
942.1  26950.86  16600.01  61.59
943.1  27064.46  16568.42  61.22
944.1  27200.04  16576.74  60.94
945.2  27250.86  16489.40  60.51
946.2  27341.46  16438.73  60.12
947.2  27385.31  16346.03  59.69
948.2  27528.14  16326.06  59.31
949.2  27562.84  16261.00  59.00
950.2  27601.23  16128.46  58.43
951.2  27696.06  16077.37  58.05
952.2  27776.58  15996.71  57.59
953.2  27874.44  15957.69  57.25
954.2  27994.28  15904.13  56.81
955.2  28013.52  15791.63  56.37
956.2  27975.49  15684.22  56.06
957.2  28074.45  15644.64  55.73
958.2  28163.05  15610.63  55.43
959.2  28188.45  15567.75  55.23
960.1  28244.69  15516.57  54.94
961.1  28322.00  15513.56  54.78
962.1  28304.06  15504.00  54.78
963.1  28357.97  15509.77  54.69
964.1  28464.51  15481.16  54.39
965.1  28543.56  15559.57  54.51
966.1  28584.14  15504.55  54.24
967.0  28655.80  15537.99  54.22
968.0  28697.14  15540.74  54.15
969.0  28718.80  15556.37  54.17
970.0  28760.47  15561.11  54.11
971.0  28834.42  15560.64  53.97
971.9  28848.78  15598.57  54.07
972.9  28890.31  15631.10  54.10
973.9  28948.56  15601.84  53.90
974.9  29046.70  15638.80  53.84
975.8  29063.68  15602.81  53.68
976.8  29052.58  15630.70  53.80
977.8  29165.54  15690.88  53.80
978.8  29197.88  15715.21  53.82
979.7  29189.32  15738.76  53.92
981.4  29653.05  14922.18  50.32
985.3  29580.67  15074.43  50.96
989.3  29694.74  15387.42  51.82
993.3  29811.28  15700.17  52.67
997.2  29873.76  15939.99  53.36
1001.2  29847.48  16127.19  54.03
1005.2  29766.32  16272.00  54.67
1009.1  29802.16  16467.13  55.25
1013.1  29912.80  16717.04  55.89
1017.1  29980.27  16974.94  56.62
1021.0  29997.45  17183.59  57.28
1025.0  29986.05  17382.34  57.97
1029.0  29874.56  17501.28  58.58
1032.9  29757.39  17612.10  59.19
1036.9  29719.10  17776.32  59.81
1040.9  29786.91  17977.09  60.35
1044.8  29914.06  18213.12  60.88
1048.8  30017.23  18426.55  61.39
1052.7  30081.05  18615.17  61.88
1056.7  30106.96  18737.22  62.24
1060.7  30124.55  18827.46  62.50
1064.6  30126.20  18903.98  62.75
1068.6  30068.46  18903.34  62.87
1072.5  30024.99  18873.28  62.86
1076.5  29992.38  18843.85  62.83
1080.4  29983.51  18806.57  62.72
1084.4  30049.89  18777.09  62.49
1088.3  30134.74  18737.98  62.18
1092.3  30115.74  18619.39  61.83
1096.2  30104.84  18487.32  61.41
1100.2  30142.18  18362.76  60.92
1104.1  30082.71  18178.72  60.43
1108.1  30052.27  18024.62  59.98
1112.0  29977.43  17831.60  59.48
1116.0  29868.35  17575.53  58.84
1119.9  29779.89  17295.49  58.08
1123.9  29822.35  17032.51  57.11
1127.8  29798.40  16636.16  55.83
1131.8  29786.58  16135.35  54.17
1135.7  29821.64  15534.79  52.09
1139.6  29831.38  14850.61  49.78
1143.6  29819.95  14185.26  47.57
1147.5  29803.64  13615.35  45.68
1151.4  29713.98  13138.18  44.22
1155.4  29731.43  12838.71  43.18
1159.3  29760.66  12656.92  42.53
1163.2  29674.15  12488.84  42.09
1167.2  29672.28  12401.80  41.80
1171.1  29681.80  12355.14  41.63
1175.0  29651.52  12301.74  41.49
1179.0  29638.87  12250.32  41.33
1182.9  29697.98  12224.14  41.16
1186.8  29706.14  12184.73  41.02
1190.7  29571.10  12091.84  40.89
1194.7  29411.94  11985.22  40.75
1198.6  29289.65  11918.45  40.69
1202.5  29196.66  11896.72  40.75
1206.4  29112.98  11884.02  40.82
1210.3  29056.59  11891.96  40.93
1214.2  29008.58  11911.49  41.06
1218.2  28915.95  11930.14  41.26
1222.1  28833.10  11966.85  41.50
1226.0  28785.60  12013.62  41.73
1229.9  28734.48  12062.80  41.98
1233.8  28673.70  12107.58  42.23
1237.7  28644.25  12147.53  42.41
1241.6  28596.57  12172.62  42.57
1245.5  28494.07  12172.62  42.72
1249.4  28422.55  12187.66  42.88
1253.3  28356.92  12207.54  43.05
1257.2  28323.43  12216.39  43.13
1261.1  28264.79  12195.68  43.15
1265.0  28184.91  12163.54  43.16
1268.9  28067.43  12120.57  43.18
1272.8  28106.70  12117.25  43.11
1276.7  28238.01  12130.60  42.96
1280.6  28297.17  12096.36  42.75
1284.5  28250.81  11999.39  42.47
1288.4  28234.52  11899.54  42.15
1292.3  28165.50  11752.58  41.73
1296.2  28076.33  11586.97  41.27
1300.1  27971.71  11395.78  40.74
1303.9  27830.79  11166.68  40.12
1307.8  27679.51  10910.15  39.42
1311.7  27513.83  10636.06  38.66
1315.6  27356.90  10353.32  37.85
1319.5  27190.78  10040.88  36.93
1323.3  27036.43  9728.38  35.98
1327.2  26898.46  9421.62  35.03
1331.1  26745.75  9103.43  34.04
1335.0  26551.82  8777.75  33.06
1338.8  26417.20  8496.16  32.16
1342.7  26306.22  8235.35  31.31
1346.5  26068.84  7937.97  30.45
1350.4  25867.11  7698.51  29.76
1354.3  25587.95  7452.63  29.13
1358.1  25293.52  7184.53  28.40
1362.0  25095.25  6945.00  27.67
1365.8  25024.00  6729.09  26.89
1369.7  25106.98  6524.98  25.99
1373.5  25078.13  6252.69  24.93
1377.4  24917.97  5901.56  23.68
1381.2  24782.40  5486.23  22.14
1385.1  24754.66  5047.49  20.39
1389.0  24692.16  4624.74  18.73
1392.8  24567.88  4220.11  17.18
1396.6  24460.52  3853.96  15.76
1400.5  24320.99  3534.96  14.53
1404.3  24225.89  3281.00  13.54
1408.2  24204.64  3083.71  12.74
1412.0  24174.50  2933.02  12.13
1415.8  24201.79  2827.01  11.68
1419.6  24176.54  2737.04  11.32
1423.5  24162.30  2669.79  11.05
1427.3  24156.22  2618.56  10.84
1431.1  24149.78  2585.40  10.71
1434.9  24082.82  2551.68  10.60
1438.8  24045.91  2527.21  10.51
1442.6  24021.66  2513.41  10.46
1446.4  23948.95  2493.24  10.41
1450.2  23899.20  2484.90  10.40
1454.0  23823.72  2476.84  10.40
1457.8  23805.13  2476.81  10.40
1461.6  23794.65  2485.72  10.45
1465.4  23719.51  2501.67  10.55
1469.2  23598.58  2514.64  10.66
1473.0  23505.47  2536.58  10.79
