/*** Spectra Vista SIG Data ***/
name= T1.sig
comm= Averaged Ref/Tar of files: RD3T1,RD3T2,RD3T3
data=
346.4  598.78  163.07  27.23
347.9  627.50  161.90  25.80
349.5  677.04  165.98  24.52
351.1  739.44  168.69  22.81
352.6  790.63  168.03  21.25
354.2  841.03  176.06  20.93
355.7  912.59  185.44  20.32
357.3  974.37  190.60  19.56
358.8  992.58  198.17  19.96
360.4  1062.29  200.27  18.85
361.9  1117.88  201.52  18.03
363.5  1149.55  198.06  17.23
365.1  1196.29  204.58  17.10
366.6  1260.16  207.72  16.48
368.2  1349.72  201.90  14.96
369.7  1403.95  203.19  14.47
371.3  1488.21  208.74  14.03
372.8  1577.00  208.27  13.21
374.4  1638.71  212.60  12.97
375.9  1688.10  210.41  12.46
377.4  1740.09  214.01  12.30
379.0  1788.57  211.21  11.81
380.5  1855.73  214.19  11.54
382.1  1905.98  210.79  11.06
383.6  1973.16  207.33  10.51
385.2  2065.25  209.92  10.16
386.7  2149.76  208.30  9.69
388.3  2271.83  208.80  9.19
389.8  2363.45  216.85  9.18
391.3  2453.59  225.77  9.20
392.9  2526.36  227.60  9.01
394.4  2602.50  239.48  9.20
395.9  2690.98  250.78  9.32
397.5  2829.48  262.60  9.28
399.0  2963.31  253.80  8.56
400.6  3033.76  247.53  8.16
402.1  3072.78  238.39  7.76
403.6  3116.75  230.56  7.40
405.1  3199.00  232.99  7.28
406.7  3304.00  230.20  6.97
408.2  3412.53  235.97  6.91
409.7  3521.28  241.25  6.85
411.3  3642.17  247.78  6.80
412.8  3732.75  256.51  6.87
414.3  3845.02  260.50  6.77
415.8  3965.00  270.25  6.82
417.4  4085.95  270.96  6.63
418.9  4192.21  281.50  6.71
420.4  4267.16  281.15  6.59
421.9  4346.32  284.75  6.55
423.5  4413.15  279.66  6.34
425.0  4492.75  280.79  6.25
426.5  4594.55  278.93  6.07
428.0  4712.54  279.89  5.94
429.5  4856.53  281.77  5.80
431.1  5025.20  284.96  5.67
432.6  5198.44  289.21  5.56
434.1  5370.75  298.57  5.56
435.6  5520.56  305.80  5.54
437.1  5670.60  310.64  5.48
438.6  5806.58  318.13  5.48
440.1  5943.54  324.01  5.45
441.6  6091.61  328.54  5.39
443.1  6230.93  336.62  5.40
444.7  6356.12  342.16  5.38
446.2  6474.98  348.73  5.39
447.7  6582.53  352.10  5.35
449.2  6691.68  356.62  5.33
450.7  6814.08  357.97  5.25
452.2  6930.56  358.68  5.18
453.7  7066.33  360.39  5.10
455.2  7233.85  361.09  4.99
456.7  7443.04  368.54  4.95
458.2  7673.27  377.35  4.92
459.7  7920.50  385.76  4.87
461.2  8156.07  397.01  4.87
462.7  8366.46  407.28  4.87
464.2  8568.06  417.85  4.88
465.7  8788.58  426.51  4.85
467.2  8970.50  438.77  4.89
468.7  9176.00  447.73  4.88
470.2  9305.26  461.50  4.96
471.7  9490.50  472.23  4.98
473.2  9788.42  482.51  4.93
474.6  10042.30  491.77  4.90
476.1  10127.24  489.15  4.83
477.6  10169.21  482.78  4.75
479.1  10224.56  479.58  4.69
480.6  10293.47  476.87  4.63
482.1  10426.95  480.22  4.61
483.6  10590.11  484.85  4.58
485.1  10796.39  490.11  4.54
486.6  11041.55  496.61  4.50
488.0  11290.50  505.70  4.48
489.5  11568.25  516.26  4.46
491.0  11840.59  527.29  4.45
492.5  12119.22  542.27  4.47
494.0  12409.65  553.99  4.46
495.4  12660.45  565.57  4.47
496.9  12912.44  580.16  4.49
498.4  13155.80  592.77  4.51
499.9  13408.52  606.39  4.52
501.4  13645.90  618.60  4.53
502.8  13864.50  632.78  4.56
504.3  14081.40  644.64  4.58
505.8  14291.05  662.59  4.64
507.2  14436.37  675.75  4.68
508.7  14548.87  687.93  4.73
510.2  14651.50  698.16  4.77
511.6  14718.08  708.63  4.81
513.1  14838.45  719.14  4.85
514.6  14986.45  729.48  4.87
516.0  15112.04  742.17  4.91
517.5  15305.31  757.51  4.95
519.0  15537.89  772.72  4.97
520.5  15768.60  791.25  5.02
521.9  16045.99  812.43  5.06
523.4  16363.11  834.35  5.10
524.8  16675.79  859.13  5.15
526.3  17027.53  885.08  5.20
527.8  17380.80  909.78  5.23
529.2  17706.86  936.16  5.29
530.7  18056.71  962.14  5.33
532.1  18377.28  987.58  5.37
533.6  18738.23  1014.85  5.42
535.0  19114.67  1043.08  5.46
536.5  19476.07  1068.51  5.49
538.0  19846.24  1099.58  5.54
539.4  20198.95  1125.51  5.57
540.9  20626.19  1158.42  5.62
542.3  20984.92  1186.81  5.66
543.8  21250.33  1211.91  5.70
545.2  21329.19  1226.66  5.75
546.6  21331.64  1227.95  5.76
548.1  21362.06  1241.85  5.81
549.5  21376.46  1248.89  5.84
551.0  21386.66  1259.94  5.89
552.4  21443.54  1267.73  5.91
553.9  21463.89  1282.24  5.97
555.3  21521.57  1296.71  6.03
556.8  21650.10  1313.23  6.07
558.2  21773.81  1334.53  6.13
559.6  21936.94  1354.83  6.18
561.1  22168.25  1383.80  6.24
562.5  22423.78  1415.70  6.31
564.0  22757.43  1456.25  6.40
565.4  23059.14  1491.15  6.47
566.8  23449.52  1542.37  6.58
568.3  23818.66  1586.50  6.66
569.7  24198.01  1633.99  6.75
571.1  24579.14  1688.56  6.87
572.6  24952.86  1743.55  6.99
574.0  25317.60  1797.57  7.10
575.4  25678.69  1858.39  7.24
576.9  26008.29  1918.86  7.38
578.3  26306.64  1984.54  7.54
579.7  26593.28  2051.07  7.71
581.1  26823.10  2114.28  7.88
582.6  27065.10  2183.36  8.07
584.0  27286.52  2256.25  8.27
585.4  27587.92  2347.45  8.51
586.8  27978.96  2444.46  8.74
588.3  28419.30  2552.55  8.98
589.7  28786.68  2656.06  9.23
591.1  29016.81  2747.69  9.47
592.5  29127.43  2835.74  9.74
594.0  29186.34  2915.67  9.99
595.4  29194.56  2996.48  10.26
596.8  29193.45  3081.15  10.55
598.2  29177.08  3169.43  10.86
599.6  29153.88  3258.60  11.18
601.0  29216.28  3366.33  11.52
602.4  29261.60  3474.29  11.87
603.9  29364.60  3591.10  12.23
605.3  29484.10  3713.02  12.59
606.7  29584.80  3832.38  12.95
608.1  29785.49  3970.23  13.33
609.5  30013.28  4118.79  13.72
610.9  30296.78  4277.25  14.12
612.3  30557.28  4433.20  14.51
613.7  30914.00  4614.30  14.93
615.1  31159.08  4783.05  15.35
616.5  31406.64  4956.19  15.78
617.9  31801.61  5162.19  16.23
619.3  32170.62  5368.99  16.69
620.7  32635.92  5597.48  17.15
622.1  33083.75  5840.59  17.65
623.5  33564.04  6110.60  18.21
624.9  34116.86  6422.61  18.83
626.3  34490.69  6705.00  19.44
627.7  34145.81  6852.09  20.07
629.1  33851.16  6979.18  20.62
630.5  33743.57  7117.07  21.09
631.9  33775.53  7273.44  21.53
633.3  33808.52  7412.78  21.93
634.7  33992.91  7564.96  22.25
636.1  34075.08  7671.75  22.51
637.5  34196.58  7739.97  22.63
638.9  34374.61  7767.49  22.60
640.2  34545.58  7745.05  22.42
641.6  34634.34  7690.64  22.21
643.0  34657.83  7619.25  21.98
644.4  34696.37  7557.02  21.78
645.8  34653.86  7478.10  21.58
647.2  34834.41  7462.36  21.42
648.5  34958.93  7445.46  21.30
649.9  34861.32  7414.12  21.27
651.3  34789.65  7417.78  21.32
652.7  34680.00  7436.82  21.44
654.1  34452.30  7393.12  21.46
655.5  34172.42  7321.45  21.43
656.8  33904.63  7227.22  21.32
658.2  34070.04  7208.31  21.16
659.6  34442.82  7212.63  20.94
660.9  34748.70  7176.95  20.65
662.3  35067.95  7118.02  20.30
663.7  35364.00  7048.93  19.93
665.0  35617.00  6968.46  19.56
666.4  35877.31  6884.02  19.19
667.8  36209.10  6836.92  18.88
669.1  36482.80  6791.79  18.62
670.5  36799.72  6776.13  18.41
671.9  36995.40  6770.49  18.30
673.2  37270.13  6806.31  18.26
674.6  37530.47  6867.61  18.30
676.0  37841.78  6975.41  18.43
677.3  38141.57  7135.08  18.71
678.7  38483.75  7359.16  19.12
680.0  38922.37  7687.34  19.75
681.4  39389.45  8127.80  20.63
682.8  39844.35  8700.36  21.84
684.1  40287.78  9415.15  23.37
685.5  40705.56  10263.80  25.21
686.8  41091.84  11233.59  27.34
688.2  41433.89  12307.55  29.70
689.5  41549.57  13383.79  32.21
690.9  41633.44  14485.89  34.79
692.2  41697.60  15577.27  37.36
693.6  41771.65  16642.59  39.84
694.9  41721.88  17633.93  42.27
696.2  41751.90  18603.18  44.56
697.6  41766.04  19516.07  46.73
698.9  41796.48  20377.19  48.75
700.3  41844.24  21165.45  50.58
701.6  41918.48  21903.04  52.25
703.0  41979.40  22578.47  53.78
704.3  41981.71  23165.68  55.18
705.6  41967.18  23684.22  56.44
707.0  41980.75  24166.73  57.57
708.3  41872.71  24554.34  58.64
709.6  41753.67  24899.27  59.63
711.0  41589.99  25180.86  60.55
712.3  41418.66  25429.62  61.40
713.6  41354.04  25708.14  62.17
714.9  41240.96  25940.74  62.90
716.3  41218.54  26198.18  63.56
717.6  41221.95  26459.10  64.19
718.9  41134.56  26624.91  64.73
720.2  40936.00  26711.64  65.25
721.6  40765.66  26806.25  65.76
722.9  40572.15  26849.53  66.18
724.2  40305.71  26835.39  66.58
725.5  40134.57  26847.73  66.89
726.8  39960.91  26846.44  67.18
728.1  39855.98  26893.67  67.48
729.5  39766.23  26926.58  67.71
730.8  39707.44  26956.16  67.89
732.1  39612.07  26955.38  68.05
733.4  39556.45  26978.82  68.20
734.7  39507.57  26999.38  68.34
736.0  39511.29  27062.45  68.49
737.3  39463.58  27096.17  68.66
738.6  39569.04  27227.34  68.81
739.9  39770.92  27406.42  68.91
741.2  39928.98  27562.35  69.03
742.5  40206.42  27816.09  69.18
743.8  40696.43  28205.39  69.31
745.1  41398.16  28753.32  69.46
746.4  42245.84  29401.37  69.60
747.7  43136.62  30061.64  69.69
749.0  43980.49  30719.83  69.85
750.3  44484.44  31104.23  69.92
751.6  44396.66  31091.28  70.03
752.9  43969.12  30826.30  70.11
754.2  43470.53  30509.77  70.18
755.4  42928.75  30182.11  70.31
756.7  42746.48  30101.13  70.42
758.0  42774.71  30170.76  70.53
759.3  43048.01  30406.62  70.63
760.6  43418.76  30717.05  70.75
761.9  43775.94  31007.07  70.83
763.1  43996.61  31204.31  70.92
764.4  44239.34  31427.74  71.04
765.7  44424.25  31606.47  71.15
767.0  44583.75  31747.15  71.21
768.2  44688.00  31860.08  71.29
769.5  44782.92  31964.33  71.38
770.8  44990.42  32147.42  71.45
772.0  45014.41  32218.62  71.57
773.3  45100.97  32314.66  71.65
774.6  45226.84  32437.85  71.72
775.8  45313.45  32541.54  71.81
777.1  45344.81  32595.66  71.88
778.4  45245.88  32571.18  71.99
779.6  45226.44  32590.18  72.06
780.9  45132.00  32559.33  72.14
782.1  44952.26  32478.59  72.25
783.4  44936.32  32503.61  72.33
784.6  44935.72  32550.26  72.44
785.9  45255.62  32811.92  72.50
787.1  45836.93  33276.69  72.60
788.4  46288.94  33677.33  72.75
789.6  46219.23  33673.60  72.86
790.9  45788.99  33393.49  72.93
792.1  45296.16  33059.40  72.98
793.4  44771.54  32733.10  73.11
794.6  44415.30  32517.68  73.21
795.8  44134.47  32337.01  73.27
797.1  43801.05  32127.17  73.35
798.3  43569.08  31986.20  73.41
799.5  43411.48  31923.58  73.54
800.8  43273.13  31837.84  73.57
802.0  43071.08  31742.15  73.70
803.2  42890.28  31640.30  73.77
804.5  42742.15  31574.89  73.87
805.7  42601.95  31477.05  73.89
806.9  42426.40  31392.64  73.99
808.1  42305.67  31321.02  74.04
809.4  42221.44  31267.16  74.06
810.6  42105.70  31197.53  74.09
811.8  42062.43  31176.83  74.12
813.0  42071.08  31180.80  74.11
814.2  42081.20  31205.26  74.15
815.4  42185.03  31270.06  74.13
816.6  42225.34  31303.50  74.13
817.9  42273.21  31329.81  74.11
819.1  42166.58  31263.68  74.14
820.3  42039.03  31152.58  74.10
821.5  41905.07  31041.01  74.07
822.7  41849.58  30980.58  74.03
823.9  41838.35  30935.81  73.94
825.1  41851.34  30884.72  73.80
826.3  41890.94  30847.06  73.64
827.5  41937.05  30823.11  73.50
828.7  42011.28  30792.92  73.30
829.9  42039.57  30761.19  73.17
831.0  42140.75  30756.17  72.98
832.2  42235.78  30759.66  72.83
833.4  42305.18  30755.20  72.70
834.6  42417.19  30766.72  72.53
835.8  42496.65  30786.84  72.45
837.0  42597.61  30839.53  72.40
838.1  42745.68  30928.51  72.35
839.3  42856.00  30964.27  72.25
840.5  42989.60  31038.95  72.20
841.7  43156.80  31151.65  72.18
842.9  43298.86  31244.74  72.16
844.0  43430.88  31332.78  72.14
845.2  43568.90  31447.39  72.18
846.4  43732.15  31550.19  72.14
847.5  43960.00  31707.98  72.13
848.7  44164.79  31847.67  72.11
849.9  44393.85  31992.29  72.06
851.0  44478.08  32057.71  72.08
852.2  44569.63  32113.85  72.05
853.3  44562.81  32099.01  72.03
854.5  44594.90  32102.18  71.99
855.6  44615.97  32106.33  71.96
856.8  44687.86  32130.93  71.90
857.9  44681.40  32117.74  71.88
859.1  44832.20  32209.21  71.84
860.2  44876.88  32202.17  71.76
861.4  44954.55  32251.81  71.74
862.5  45021.69  32291.37  71.72
863.7  45150.84  32350.67  71.65
864.8  45213.35  32364.22  71.58
865.9  45167.77  32318.05  71.55
867.1  45241.43  32353.07  71.51
868.2  45295.54  32361.11  71.44
869.3  45314.27  32358.00  71.41
870.5  45282.48  32296.40  71.32
871.6  45315.83  32290.79  71.26
872.7  45413.27  32309.43  71.15
873.9  45478.16  32313.02  71.05
875.0  45456.71  32265.34  70.98
876.1  45452.45  32228.55  70.91
877.2  45498.99  32224.47  70.82
878.3  45519.98  32185.50  70.71
879.4  45563.53  32185.35  70.64
880.5  45631.08  32180.22  70.52
881.7  45596.20  32131.13  70.47
882.8  45693.96  32120.17  70.29
883.9  45722.91  32109.08  70.23
885.0  45675.63  32040.67  70.15
886.1  45712.78  31962.26  69.92
887.2  45537.58  31822.13  69.88
888.3  45475.07  31681.78  69.67
889.4  45347.40  31532.64  69.54
890.5  45259.13  31428.35  69.44
891.6  45193.70  31327.02  69.32
892.7  45201.31  31276.91  69.19
893.8  45270.56  31254.22  69.04
894.9  45248.28  31194.78  68.94
896.0  45235.90  31117.54  68.79
897.0  45257.72  31077.83  68.67
898.1  45230.13  31018.39  68.58
899.2  45252.30  30978.29  68.46
900.3  45165.90  30865.87  68.34
901.4  45101.16  30762.88  68.21
902.4  45077.20  30721.00  68.15
903.5  45018.01  30614.79  68.01
904.6  45035.56  30570.46  67.88
905.7  45038.93  30505.39  67.73
906.7  44985.82  30429.90  67.64
907.8  45025.57  30384.10  67.48
908.9  44904.57  30250.25  67.37
909.9  44897.74  30177.19  67.21
911.0  44830.08  30082.54  67.10
912.1  44749.25  29946.92  66.92
913.1  44707.00  29834.97  66.73
914.2  44554.62  29688.85  66.63
915.2  44505.45  29604.03  66.52
916.3  44491.35  29537.62  66.39
917.3  44461.10  29411.74  66.15
918.4  44383.35  29257.53  65.92
919.4  44330.69  29130.23  65.71
920.5  44315.70  29008.02  65.46
921.5  44285.78  28944.99  65.36
922.6  44268.10  28779.00  65.01
923.6  44262.16  28704.24  64.85
924.7  44333.00  28570.28  64.44
925.7  44276.22  28433.65  64.22
926.7  44252.98  28313.57  63.98
927.8  44374.33  28232.67  63.62
928.8  44502.63  28173.44  63.31
929.9  44598.23  28085.77  62.98
930.9  44802.27  28047.47  62.60
931.9  45011.35  28024.36  62.26
932.9  45355.12  28061.47  61.87
934.0  45370.16  27926.71  61.55
935.0  45397.97  27775.28  61.18
936.0  45413.73  27606.75  60.79
937.0  45319.95  27412.03  60.49
938.1  45295.44  27236.59  60.13
939.1  45257.91  27047.79  59.76
940.1  45342.90  26939.87  59.41
941.1  45568.46  26935.91  59.11
942.1  45803.34  26934.61  58.80
943.1  45999.43  26862.81  58.40
944.1  46171.28  26827.17  58.10
945.2  46338.18  26685.79  57.59
946.2  46411.22  26538.91  57.18
947.2  46518.25  26430.79  56.82
948.2  46693.82  26341.98  56.41
949.2  46838.19  26209.22  55.96
950.2  46912.95  26035.12  55.50
951.2  46909.80  25908.68  55.23
952.2  47054.57  25713.68  54.65
953.2  47260.85  25652.37  54.28
954.2  47365.65  25506.40  53.85
955.2  47408.68  25366.05  53.51
956.2  47434.65  25187.85  53.10
957.2  47543.77  25096.45  52.79
958.2  47601.59  25010.81  52.54
959.2  47735.55  24932.27  52.23
960.1  47775.14  24854.87  52.02
961.1  47870.63  24833.54  51.88
962.1  47933.44  24767.69  51.67
963.1  48032.50  24774.53  51.58
964.1  48057.21  24717.80  51.43
965.1  48243.99  24779.31  51.36
966.1  48335.33  24764.40  51.23
967.0  48410.39  24759.50  51.15
968.0  48434.88  24753.06  51.11
969.0  48556.60  24774.78  51.02
970.0  48603.65  24775.65  50.97
971.0  48737.12  24812.87  50.91
971.9  48722.90  24817.27  50.94
972.9  48879.95  24888.29  50.92
973.9  48859.53  24957.81  51.08
974.9  49044.08  25026.58  51.03
975.8  49101.73  25057.96  51.03
976.8  49135.91  25113.91  51.11
977.8  49315.41  25276.80  51.26
978.8  49372.50  25301.42  51.25
979.7  49504.50  25494.21  51.50
980.7  49626.72  25637.82  51.66
981.7  49868.69  25847.37  51.83
982.6  50026.42  26071.03  52.11
983.6  50542.44  26418.21  52.27
984.6  51139.74  26805.60  52.42
985.5  51570.00  27242.71  52.83
986.5  52881.11  27757.97  52.49
987.5  53801.49  28562.75  53.09
988.4  54737.10  29225.13  53.39
989.4  56052.04  30065.03  53.64
990.4  57074.27  30867.79  54.08
991.3  59136.61  31954.22  54.03
992.3  61232.97  32435.87  52.97
993.2  62381.81  33554.53  53.79
994.2  63759.15  34772.35  54.54
995.2  64627.45  35018.19  54.18
996.1  65405.36  36146.14  55.26
997.1  65143.00  36034.94  55.32
998.0  67149.60  36075.78  53.72
999.0  66846.51  35687.61  53.39
1000.0  67127.69  36451.46  54.30
1000.9  65712.83  36673.27  55.81
1001.9  66491.34  36921.62  55.53
1002.8  64393.95  36266.89  56.32
1003.8  65025.46  36702.29  56.44
1004.8  66172.20  36326.26  54.90
961.5  59748.86  28585.35  47.84
965.5  58598.35  28432.00  48.52
969.5  56260.49  27947.65  49.68
973.4  53913.29  27317.27  50.67
977.4  51859.95  26914.41  51.90
981.4  50850.20  26917.32  52.93
985.3  50481.20  27028.20  53.54
989.3  50535.22  27255.46  53.93
993.3  50635.09  27503.87  54.32
997.2  50595.02  27638.11  54.63
1001.2  50545.04  27812.63  55.03
1005.2  50473.33  28060.55  55.59
1009.1  50535.74  28428.32  56.25
1013.1  50697.93  28879.26  56.96
1017.1  50843.90  29309.67  57.65
1021.0  50855.49  29668.50  58.34
1025.0  50816.26  30017.21  59.07
1029.0  50641.08  30268.05  59.77
1032.9  50496.42  30526.69  60.45
1036.9  50486.34  30874.29  61.15
1040.9  50614.23  31284.43  61.81
1044.8  50848.91  31743.53  62.43
1048.8  51055.33  32145.76  62.96
1052.7  51200.97  32476.47  63.43
1056.7  51265.76  32710.32  63.81
1060.7  51328.86  32884.02  64.07
1064.6  51364.29  33005.70  64.26
1068.6  51285.22  33009.92  64.37
1072.5  51205.93  32968.53  64.38
1076.5  51155.97  32907.45  64.33
1080.4  51154.95  32815.59  64.15
1084.4  51258.31  32735.58  63.86
1088.3  51367.47  32616.87  63.50
1092.3  51376.13  32373.49  63.01
1096.2  51342.58  32104.89  62.53
1100.2  51360.86  31860.42  62.03
1104.1  51244.60  31493.78  61.46
1108.1  51175.76  31157.08  60.88
1112.0  51059.75  30790.44  60.30
1116.0  50831.30  30324.32  59.66
1119.9  50653.13  29808.51  58.85
1123.9  50703.41  29325.19  57.84
1127.8  50649.60  28601.60  56.47
1131.8  50608.23  27665.68  54.67
1135.7  50617.81  26591.66  52.53
1139.6  50606.06  25418.66  50.23
1143.6  50555.26  24289.78  48.05
1147.5  50517.05  23311.34  46.15
1151.4  50365.69  22465.16  44.60
1155.4  50355.11  21921.99  43.53
1159.3  50376.78  21559.06  42.80
1163.2  50207.59  21218.36  42.26
1167.2  50161.80  21021.70  41.91
1171.1  50174.37  20884.08  41.62
1175.0  50101.08  20730.20  41.38
1179.0  50065.70  20599.23  41.14
1182.9  50165.17  20522.91  40.91
1186.8  50159.61  20416.29  40.70
1190.7  49934.95  20231.57  40.52
1194.7  49665.47  20047.22  40.36
1198.6  49438.62  19913.36  40.28
1202.5  49264.40  19838.63  40.27
1206.4  49122.14  19804.03  40.32
1210.3  49037.26  19810.07  40.40
1214.2  48930.30  19847.63  40.56
1218.2  48765.56  19889.47  40.79
1222.1  48630.48  19952.39  41.03
1226.0  48538.40  20031.31  41.27
1229.9  48450.48  20097.60  41.48
1233.8  48352.03  20150.07  41.67
1237.7  48317.50  20218.44  41.84
1241.6  48229.08  20264.67  42.02
1245.5  48061.09  20265.87  42.17
1249.4  47934.98  20272.16  42.29
1253.3  47803.87  20272.33  42.41
1257.2  47735.46  20275.31  42.47
1261.1  47624.11  20249.67  42.52
1265.0  47490.52  20195.95  42.53
1268.9  47304.07  20096.39  42.48
1272.8  47372.70  20083.95  42.40
1276.7  47590.81  20106.04  42.25
1280.6  47691.16  20060.93  42.06
1284.5  47615.01  19915.12  41.83
1288.4  47591.67  19758.69  41.52
1292.3  47467.75  19525.00  41.13
1296.2  47318.59  19249.50  40.68
1300.1  47148.87  18934.35  40.16
1303.9  46897.39  18552.98  39.56
1307.8  46639.44  18136.83  38.89
1311.7  46386.67  17686.17  38.13
1315.6  46123.85  17220.15  37.33
1319.5  45848.18  16722.35  36.47
1323.3  45606.50  16219.00  35.56
1327.2  45386.16  15724.91  34.65
1331.1  45132.53  15216.67  33.72
1335.0  44824.46  14691.79  32.78
1338.8  44600.56  14225.71  31.90
1342.7  44421.07  13797.25  31.06
1346.5  44042.02  13329.35  30.27
1350.4  43720.62  12907.64  29.52
1354.3  43279.60  12470.80  28.81
1358.1  42799.92  12039.94  28.13
1362.0  42533.76  11663.89  27.42
1365.8  42447.40  11330.44  26.69
1369.7  42569.31  11010.37  25.86
