/*** Spectra Vista SIG Data ***/
name= RS5.sig
comm= Averaged Ref/Tar of files: RD6S13,RD6S14,RD6S15
data=
346.4  350.35  68.16  19.45
347.9  381.21  66.31  17.39
349.5  410.28  70.30  17.14
351.1  433.68  70.72  16.31
352.6  475.96  74.85  15.73
354.2  499.06  75.92  15.21
355.7  540.48  78.13  14.46
357.3  582.54  84.37  14.48
358.8  588.91  85.74  14.56
360.4  636.67  90.05  14.14
361.9  668.64  87.06  13.02
363.5  692.50  90.95  13.13
365.1  712.57  87.61  12.30
366.6  747.47  92.99  12.44
368.2  792.37  91.55  11.55
369.7  840.74  90.11  10.72
371.3  898.85  96.14  10.70
372.8  941.22  97.17  10.32
374.4  986.23  101.01  10.24
375.9  1017.83  99.96  9.82
377.4  1052.18  101.26  9.62
379.0  1086.82  102.69  9.45
380.5  1123.29  103.61  9.22
382.1  1153.93  103.82  9.00
383.6  1194.95  102.82  8.60
385.2  1251.25  105.97  8.47
386.7  1299.60  105.41  8.11
388.3  1372.34  108.70  7.92
389.8  1424.66  111.45  7.82
391.3  1483.01  113.81  7.67
392.9  1530.61  118.92  7.77
394.4  1562.39  122.26  7.83
395.9  1621.81  126.23  7.78
397.5  1711.90  134.37  7.85
399.0  1784.48  131.63  7.38
400.6  1838.09  128.10  6.97
402.1  1856.31  128.14  6.90
403.6  1888.03  124.83  6.61
405.1  1944.54  125.98  6.48
406.7  2010.40  127.23  6.33
408.2  2079.37  130.98  6.30
409.7  2148.16  131.71  6.13
411.3  2213.53  136.17  6.15
412.8  2271.65  139.67  6.15
414.3  2341.03  143.75  6.14
415.8  2417.50  148.50  6.14
417.4  2490.79  150.62  6.05
418.9  2548.98  152.31  5.98
420.4  2593.45  153.54  5.92
421.9  2640.22  155.85  5.90
423.5  2679.41  155.67  5.81
425.0  2722.85  156.73  5.76
426.5  2778.88  156.81  5.64
428.0  2849.90  156.67  5.50
429.5  2939.79  162.09  5.51
431.1  3042.79  163.18  5.36
432.6  3149.06  167.13  5.31
434.1  3259.99  172.74  5.30
435.6  3346.58  177.38  5.30
437.1  3441.75  180.83  5.25
438.6  3531.11  187.33  5.31
440.1  3611.12  188.47  5.22
441.6  3703.62  193.31  5.22
443.1  3787.76  197.78  5.22
444.7  3873.68  199.47  5.15
446.2  3941.61  201.24  5.11
447.7  4009.71  206.40  5.15
449.2  4084.56  207.79  5.09
450.7  4145.44  211.19  5.09
452.2  4210.01  213.92  5.08
453.7  4291.20  215.31  5.02
455.2  4393.26  215.88  4.91
456.7  4515.28  221.88  4.91
458.2  4654.47  229.16  4.92
459.7  4795.00  235.67  4.91
461.2  4934.06  241.10  4.89
462.7  5054.96  247.62  4.90
464.2  5177.07  252.78  4.88
465.7  5301.12  259.72  4.90
467.2  5404.44  263.34  4.87
468.7  5508.00  272.53  4.95
470.2  5586.81  279.25  5.00
471.7  5702.38  285.16  5.00
473.2  5885.72  295.55  5.02
474.6  6027.25  300.78  4.99
476.1  6074.86  301.75  4.97
477.6  6093.70  299.63  4.92
479.1  6122.60  298.05  4.87
480.6  6163.05  297.93  4.83
482.1  6243.66  302.44  4.84
483.6  6332.42  305.14  4.82
485.1  6458.38  310.45  4.81
486.6  6604.00  314.24  4.76
488.0  6753.50  322.51  4.78
489.5  6913.82  329.46  4.77
491.0  7075.65  338.41  4.78
492.5  7238.97  346.35  4.78
494.0  7404.10  355.01  4.79
495.4  7549.58  361.35  4.79
496.9  7695.36  368.96  4.79
498.4  7836.28  377.99  4.82
499.9  7979.51  385.75  4.83
501.4  8103.78  392.98  4.85
502.8  8223.51  401.41  4.88
504.3  8333.10  409.20  4.91
505.8  8444.88  416.79  4.94
507.2  8514.20  423.45  4.97
508.7  8565.01  424.85  4.96
510.2  8590.79  430.21  5.01
511.6  8618.22  434.68  5.04
513.1  8670.26  439.33  5.07
514.6  8732.77  446.27  5.11
516.0  8783.27  449.90  5.12
517.5  8880.96  456.95  5.15
519.0  8994.65  463.13  5.15
520.5  9112.66  471.33  5.17
521.9  9263.01  480.31  5.19
523.4  9434.43  493.28  5.23
524.8  9608.27  503.82  5.24
526.3  9802.81  518.16  5.29
527.8  10000.35  533.35  5.33
529.2  10181.33  545.24  5.36
530.7  10383.39  558.39  5.38
532.1  10567.68  574.56  5.44
533.6  10773.42  590.88  5.48
535.0  10980.59  606.37  5.52
536.5  11186.70  621.77  5.56
538.0  11401.56  641.92  5.63
539.4  11601.83  657.57  5.67
540.9  11838.18  676.49  5.71
542.3  12056.36  692.72  5.75
543.8  12205.88  706.93  5.79
545.2  12241.58  717.21  5.86
546.6  12248.30  723.20  5.90
548.1  12260.70  729.91  5.95
549.5  12261.13  737.64  6.02
551.0  12260.01  743.43  6.06
552.4  12274.54  750.99  6.12
553.9  12279.40  757.53  6.17
555.3  12300.80  767.64  6.24
556.8  12360.66  778.34  6.30
558.2  12414.09  792.23  6.38
559.6  12499.51  804.33  6.43
561.1  12612.44  821.06  6.51
562.5  12742.28  839.39  6.59
564.0  12915.37  861.40  6.67
565.4  13070.62  881.75  6.75
566.8  13269.64  905.99  6.83
568.3  13461.39  932.07  6.92
569.7  13659.35  956.67  7.00
571.1  13859.91  986.30  7.12
572.6  14064.03  1014.23  7.21
574.0  14250.23  1042.91  7.32
575.4  14437.41  1073.14  7.43
576.9  14612.77  1103.37  7.55
578.3  14771.90  1132.80  7.67
579.7  14927.19  1161.35  7.78
581.1  15049.34  1189.13  7.90
582.6  15179.87  1219.30  8.03
584.0  15306.40  1249.25  8.16
585.4  15471.50  1281.12  8.28
586.8  15703.41  1317.23  8.39
588.3  15959.97  1357.04  8.50
589.7  16164.72  1391.36  8.61
591.1  16308.26  1425.42  8.74
592.5  16380.50  1450.56  8.86
594.0  16416.90  1472.60  8.97
595.4  16426.30  1493.44  9.09
596.8  16438.21  1515.23  9.22
598.2  16446.40  1536.78  9.34
599.6  16446.15  1557.61  9.47
601.0  16488.64  1585.37  9.61
602.4  16524.83  1607.78  9.73
603.9  16595.00  1638.44  9.87
605.3  16677.56  1669.52  10.01
606.7  16748.10  1698.72  10.14
608.1  16880.08  1739.77  10.31
609.5  17023.96  1779.75  10.45
610.9  17200.20  1827.31  10.62
612.3  17363.60  1874.03  10.79
613.7  17583.26  1927.87  10.96
615.1  17730.09  1975.97  11.14
616.5  17885.32  2025.40  11.32
617.9  18120.27  2086.24  11.51
619.3  18343.55  2150.27  11.72
620.7  18613.68  2219.01  11.92
622.1  18877.69  2294.59  12.16
623.5  19168.37  2382.11  12.43
624.9  19495.88  2478.30  12.71
626.3  19705.80  2557.92  12.98
627.7  19502.63  2581.22  13.24
629.1  19316.59  2603.47  13.48
630.5  19234.56  2636.56  13.71
631.9  19243.16  2663.30  13.84
633.3  19227.78  2689.17  13.99
634.7  19307.14  2723.12  14.10
636.1  19335.07  2747.71  14.21
637.5  19378.14  2782.15  14.36
638.9  19457.31  2818.43  14.49
640.2  19514.53  2826.69  14.49
641.6  19531.98  2849.65  14.59
643.0  19504.65  2887.09  14.80
644.4  19507.28  2930.36  15.02
645.8  19449.04  2963.53  15.24
647.2  19526.59  3015.70  15.44
648.5  19579.91  3074.97  15.70
649.9  19492.88  3116.19  15.99
651.3  19428.45  3169.14  16.31
652.7  19344.30  3208.58  16.59
654.1  19217.52  3190.62  16.60
655.5  19076.42  3156.59  16.55
656.8  18936.77  3124.67  16.50
658.2  19052.33  3138.61  16.47
659.6  19274.42  3180.83  16.50
660.9  19463.87  3219.82  16.54
662.3  19650.11  3257.90  16.58
663.7  19826.10  3297.56  16.63
665.0  19986.79  3340.89  16.72
666.4  20146.14  3387.42  16.81
667.8  20346.56  3446.78  16.94
669.1  20529.76  3506.49  17.08
670.5  20738.52  3578.19  17.25
671.9  20872.26  3650.10  17.49
673.2  21059.41  3739.21  17.76
674.6  21230.21  3839.15  18.08
676.0  21420.32  3953.22  18.46
677.3  21614.12  4077.43  18.86
678.7  21817.38  4210.76  19.30
680.0  22089.50  4360.17  19.74
681.4  22373.47  4521.19  20.21
682.8  22657.86  4688.93  20.69
684.1  22942.53  4858.78  21.18
685.5  23200.94  5020.26  21.64
686.8  23448.72  5179.78  22.09
688.2  23672.40  5325.99  22.50
689.5  23749.65  5441.37  22.91
690.9  23825.77  5552.14  23.30
692.2  23869.28  5653.01  23.68
693.6  23926.69  5755.23  24.05
694.9  23920.11  5839.70  24.41
696.2  23942.14  5928.31  24.76
697.6  23961.85  6017.46  25.11
698.9  23992.32  6110.72  25.47
700.3  24038.01  6203.12  25.81
701.6  24084.68  6293.76  26.13
703.0  24137.54  6388.40  26.47
704.3  24141.49  6467.01  26.79
705.6  24144.66  6541.25  27.09
707.0  24151.61  6617.18  27.40
708.3  24094.31  6680.44  27.73
709.6  24038.25  6743.98  28.06
711.0  23936.43  6794.20  28.38
712.3  23827.16  6840.69  28.71
713.6  23789.01  6904.49  29.02
714.9  23716.29  6960.50  29.35
716.3  23686.39  7027.20  29.67
717.6  23672.15  7100.59  30.00
718.9  23614.96  7149.06  30.27
720.2  23494.56  7180.06  30.56
721.6  23399.74  7218.66  30.85
722.9  23270.63  7250.59  31.16
724.2  23091.17  7264.37  31.46
725.5  22957.02  7294.24  31.77
726.8  22832.78  7316.92  32.05
728.1  22750.67  7357.43  32.34
729.5  22685.44  7397.67  32.61
730.8  22628.18  7439.61  32.88
732.1  22547.20  7482.85  33.19
733.4  22493.78  7528.05  33.47
734.7  22430.29  7573.69  33.77
736.0  22412.65  7632.38  34.05
737.3  22354.35  7682.73  34.37
738.6  22392.88  7763.97  34.67
739.9  22486.41  7864.79  34.98
741.2  22557.99  7955.40  35.27
742.5  22690.46  8084.66  35.63
743.8  22954.18  8247.08  35.93
745.1  23356.68  8468.49  36.26
746.4  23838.13  8720.11  36.58
747.7  24340.83  8977.55  36.88
749.0  24845.90  9220.73  37.11
750.3  25109.11  9383.77  37.37
751.6  25056.94  9423.93  37.61
752.9  24812.33  9398.62  37.88
754.2  24511.78  9360.30  38.19
755.4  24190.11  9317.44  38.52
756.7  24095.29  9354.16  38.82
758.0  24119.44  9441.97  39.15
759.3  24282.67  9589.24  39.49
760.6  24509.10  9758.26  39.81
761.9  24709.31  9921.34  40.15
763.1  24854.26  10050.74  40.44
764.4  25021.13  10186.73  40.71
765.7  25148.50  10314.20  41.01
767.0  25255.87  10431.72  41.30
768.2  25351.20  10546.59  41.60
769.5  25424.49  10645.51  41.87
770.8  25570.26  10776.71  42.15
772.0  25587.81  10867.08  42.47
773.3  25669.17  10970.65  42.74
774.6  25760.75  11086.30  43.04
775.8  25826.13  11185.09  43.31
777.1  25851.30  11269.09  43.59
778.4  25836.83  11325.33  43.83
779.6  25861.37  11407.22  44.11
780.9  25820.00  11467.73  44.41
782.1  25728.02  11500.20  44.70
783.4  25750.40  11578.95  44.97
784.6  25767.74  11659.01  45.25
785.9  25975.04  11829.71  45.54
787.1  26352.59  12083.84  45.85
788.4  26662.70  12283.93  46.07
789.6  26677.46  12322.79  46.19
790.9  26422.83  12245.47  46.34
792.1  26144.60  12183.41  46.60
793.4  25865.12  12135.89  46.92
794.6  25676.57  12110.98  47.17
795.8  25513.36  12106.62  47.45
797.1  25350.08  12094.17  47.71
798.3  25228.50  12105.75  47.98
799.5  25169.97  12136.28  48.22
800.8  25099.23  12161.11  48.45
802.0  25011.42  12188.93  48.73
803.2  24918.76  12199.18  48.96
804.5  24860.18  12221.30  49.16
805.7  24781.04  12243.61  49.41
806.9  24699.71  12256.42  49.62
808.1  24647.73  12287.17  49.85
809.4  24609.13  12323.85  50.08
810.6  24558.63  12344.45  50.27
811.8  24538.32  12396.66  50.52
813.0  24560.28  12449.46  50.69
814.2  24583.06  12517.60  50.92
815.4  24644.79  12595.91  51.11
816.6  24675.27  12649.13  51.26
817.9  24704.84  12706.48  51.43
819.1  24672.89  12716.23  51.54
820.3  24583.02  12707.80  51.69
821.5  24511.70  12713.11  51.87
822.7  24474.49  12720.22  51.97
823.9  24466.74  12751.09  52.12
825.1  24483.13  12766.45  52.14
826.3  24493.16  12797.74  52.25
827.5  24511.03  12822.13  52.31
828.7  24560.16  12846.73  52.31
829.9  24556.61  12869.46  52.41
831.0  24631.50  12905.52  52.39
832.2  24684.15  12946.70  52.45
833.4  24732.69  12977.69  52.47
834.6  24771.09  13020.00  52.56
835.8  24806.25  13067.15  52.68
837.0  24848.21  13122.07  52.81
838.1  24942.61  13191.92  52.89
839.3  24987.97  13244.45  53.00
840.5  25056.73  13307.39  53.11
841.7  25139.84  13385.93  53.25
842.9  25202.72  13465.12  53.43
844.0  25272.39  13525.00  53.52
845.2  25356.92  13599.75  53.63
846.4  25406.55  13660.12  53.77
847.5  25535.27  13763.88  53.90
848.7  25649.51  13851.63  54.00
849.9  25759.43  13926.61  54.06
851.0  25787.85  13970.51  54.17
852.2  25836.49  14013.88  54.24
853.3  25835.02  14033.02  54.32
854.5  25803.13  14055.86  54.47
855.6  25784.28  14081.26  54.61
856.8  25811.14  14116.00  54.69
857.9  25796.36  14128.06  54.77
859.1  25866.40  14197.59  54.89
860.2  25870.46  14222.11  54.97
861.4  25883.89  14268.29  55.12
862.5  25913.95  14304.22  55.20
863.7  25967.63  14355.01  55.28
864.8  25978.23  14383.06  55.37
865.9  25934.02  14378.92  55.44
867.1  25972.57  14414.90  55.50
868.2  25960.64  14436.63  55.61
869.3  25983.57  14445.82  55.60
870.5  25945.69  14448.52  55.69
871.6  25952.82  14462.26  55.73
872.7  25988.86  14493.84  55.77
873.9  26010.48  14520.81  55.83
875.0  25998.57  14510.34  55.81
876.1  25976.68  14516.65  55.88
877.2  25992.15  14531.38  55.91
878.3  25997.76  14523.91  55.87
879.4  26016.59  14542.23  55.90
880.5  26032.32  14562.86  55.94
881.7  26038.68  14535.13  55.82
882.8  26051.76  14544.42  55.83
883.9  26088.59  14548.54  55.77
885.0  26049.66  14520.14  55.74
886.1  26068.54  14502.11  55.63
887.2  25979.14  14438.64  55.58
888.3  25929.87  14390.40  55.50
889.4  25867.81  14326.42  55.38
890.5  25830.84  14306.54  55.39
891.6  25777.28  14272.99  55.37
892.7  25812.52  14246.19  55.19
893.8  25792.32  14247.70  55.24
894.9  25833.34  14237.93  55.11
896.0  25797.95  14208.61  55.08
897.0  25823.30  14205.74  55.01
898.1  25837.83  14190.68  54.92
899.2  25853.12  14171.89  54.82
900.3  25827.20  14124.44  54.69
901.4  25755.93  14079.03  54.66
902.4  25796.28  14072.42  54.55
903.5  25760.57  14035.61  54.48
904.6  25773.48  14017.00  54.39
905.7  25786.56  13987.59  54.24
906.7  25778.44  13955.98  54.14
907.8  25791.16  13948.98  54.08
908.9  25756.23  13901.86  53.97
909.9  25738.83  13847.13  53.80
911.0  25715.27  13802.42  53.67
912.1  25708.69  13751.95  53.49
913.1  25683.06  13687.75  53.29
914.2  25568.28  13608.62  53.22
915.2  25594.38  13559.76  52.98
916.3  25582.28  13513.90  52.83
917.3  25579.53  13451.14  52.59
918.4  25529.08  13344.85  52.27
919.4  25526.52  13277.34  52.01
920.5  25540.93  13196.23  51.67
921.5  25532.64  13127.20  51.41
922.6  25509.72  13021.68  51.05
923.6  25552.64  12942.70  50.65
924.7  25558.13  12853.42  50.29
925.7  25559.01  12756.88  49.91
926.7  25571.07  12646.95  49.46
927.8  25622.74  12549.08  48.98
928.8  25737.00  12467.90  48.44
929.9  25798.01  12376.72  47.98
930.9  25912.02  12317.96  47.54
931.9  26063.45  12238.29  46.96
932.9  26272.00  12200.17  46.44
934.0  26311.65  12066.68  45.86
935.0  26328.00  11943.53  45.36
936.0  26313.67  11792.09  44.81
937.0  26305.79  11649.96  44.29
938.1  26273.03  11510.20  43.81
939.1  26282.27  11370.96  43.26
940.1  26307.38  11248.92  42.76
941.1  26474.98  11164.93  42.17
942.1  26613.43  11093.62  41.68
943.1  26709.35  10973.74  41.09
944.1  26891.46  10894.59  40.51
945.2  26931.87  10734.56  39.86
946.2  27005.05  10637.55  39.39
947.2  27050.94  10486.00  38.76
948.2  27161.01  10362.20  38.15
949.2  27258.97  10217.57  37.48
950.2  27257.00  10075.72  36.97
951.2  27381.90  9922.70  36.24
952.2  27427.92  9777.01  35.65
953.2  27549.11  9659.20  35.06
954.2  27670.16  9552.53  34.52
955.2  27683.23  9423.36  34.04
956.2  27678.04  9298.03  33.59
957.2  27683.31  9218.19  33.30
958.2  27771.67  9130.02  32.88
959.2  27855.45  9068.70  32.56
960.1  27895.78  9010.39  32.30
961.1  27947.74  8981.11  32.14
962.1  27921.09  8924.06  31.96
963.1  28038.72  8903.56  31.75
964.1  28081.62  8894.23  31.67
965.1  28159.91  8863.59  31.48
966.1  28230.04  8857.87  31.38
967.0  28291.66  8852.65  31.29
968.0  28354.15  8841.62  31.18
969.0  28355.00  8811.09  31.07
970.0  28440.42  8818.70  31.01
971.0  28447.07  8842.10  31.08
971.9  28529.94  8832.95  30.96
972.9  28619.85  8848.22  30.92
973.9  28640.46  8825.35  30.81
974.9  28629.25  8848.23  30.91
975.8  28737.28  8843.99  30.78
976.8  28722.61  8865.26  30.87
977.8  28846.97  8900.99  30.86
978.8  28789.28  8898.40  30.91
979.7  28914.30  8979.26  31.05
980.7  28909.16  8986.89  31.09
981.7  29108.19  9075.20  31.18
982.6  29310.11  9115.50  31.10
983.6  29612.62  9233.06  31.18
984.6  29886.86  9402.79  31.46
985.5  30220.02  9603.48  31.78
986.5  30590.42  9764.69  31.92
987.5  31346.01  10039.28  32.03
988.4  31956.65  10221.86  31.99
989.4  32957.10  10594.54  32.15
990.4  33646.09  10850.44  32.25
991.3  34254.92  11259.25  32.87
992.3  35605.12  11490.15  32.27
993.2  35791.00  11922.85  33.31
994.2  37066.33  12363.88  33.36
995.2  37769.29  12403.25  32.84
996.1  38356.88  12693.94  33.09
997.1  37945.80  12898.32  33.99
998.0  38542.50  12539.16  32.53
999.0  38301.25  12791.17  33.40
1000.0  38064.02  12875.52  33.83
1000.9  38955.51  12775.31  32.79
1001.9  38313.61  12838.78  33.51
1002.8  38469.11  13046.05  33.91
1003.8  38840.71  12801.44  32.96
1004.8  39018.78  12930.20  33.14
961.5  34418.44  9474.74  27.53
965.5  34203.70  9325.70  27.27
969.5  33124.73  9108.23  27.50
973.4  31599.68  8925.44  28.25
977.4  30418.99  8781.15  28.87
981.4  29806.10  8787.51  29.48
985.3  29606.90  8885.56  30.01
989.3  29665.19  9080.78  30.61
993.3  29713.32  9303.10  31.31
997.2  29668.74  9462.47  31.89
1001.2  29627.00  9616.14  32.46
1005.2  29568.23  9779.05  33.07
1009.1  29600.49  10005.47  33.80
1013.1  29702.49  10291.41  34.65
1017.1  29789.49  10590.80  35.55
1021.0  29789.99  10855.15  36.44
1025.0  29760.59  11124.48  37.38
1029.0  29636.30  11375.11  38.38
1032.9  29533.53  11626.51  39.37
1036.9  29509.70  11904.39  40.34
1040.9  29556.91  12213.59  41.32
1044.8  29679.34  12536.60  42.24
1048.8  29786.37  12823.60  43.05
1052.7  29868.84  13070.33  43.76
1056.7  29898.31  13253.89  44.33
1060.7  29913.73  13383.49  44.74
1064.6  29918.21  13483.92  45.07
1068.6  29859.11  13508.89  45.24
1072.5  29814.52  13477.29  45.20
1076.5  29798.83  13406.69  44.99
1080.4  29797.49  13313.99  44.68
1084.4  29858.05  13202.51  44.22
1088.3  29928.60  13051.52  43.61
1092.3  29919.24  12827.31  42.87
1096.2  29930.07  12582.86  42.04
1100.2  29956.02  12351.70  41.23
1104.1  29873.92  12056.83  40.36
1108.1  29858.25  11789.17  39.48
1112.0  29809.22  11506.37  38.60
1116.0  29674.06  11168.08  37.64
1119.9  29580.84  10795.70  36.50
1123.9  29636.88  10387.72  35.05
1127.8  29621.76  9838.08  33.21
1131.8  29615.13  9187.18  31.02
1135.7  29658.37  8486.30  28.61
1139.6  29649.41  7800.62  26.31
1143.6  29635.32  7222.00  24.37
1147.5  29635.02  6779.57  22.88
1151.4  29535.85  6432.40  21.78
1155.4  29547.88  6217.45  21.04
1159.3  29582.50  6085.45  20.57
1163.2  29498.44  5971.88  20.24
1167.2  29505.90  5918.88  20.06
1171.1  29517.01  5876.06  19.91
1175.0  29484.53  5818.05  19.73
1179.0  29486.15  5771.11  19.57
1182.9  29537.81  5748.78  19.46
1186.8  29538.86  5714.24  19.34
1190.7  29410.97  5654.30  19.23
1194.7  29255.48  5595.65  19.13
1198.6  29133.72  5554.40  19.07
1202.5  29044.69  5528.70  19.04
1206.4  28972.03  5506.53  19.01
1210.3  28920.11  5500.14  19.02
1214.2  28863.76  5502.19  19.06
1218.2  28763.18  5494.04  19.10
1222.1  28692.28  5508.55  19.20
1226.0  28656.56  5523.99  19.28
1229.9  28600.92  5532.14  19.34
1233.8  28545.33  5545.00  19.43
1237.7  28520.81  5555.83  19.48
1241.6  28465.46  5565.44  19.55
1245.5  28370.21  5558.64  19.59
1249.4  28299.76  5550.74  19.61
1253.3  28232.22  5549.06  19.66
1257.2  28191.00  5541.67  19.66
1261.1  28130.65  5527.76  19.65
1265.0  28057.45  5512.03  19.65
1268.9  27949.80  5470.23  19.57
1272.8  27989.85  5452.05  19.48
1276.7  28109.94  5453.89  19.40
1280.6  28175.48  5424.17  19.25
1284.5  28132.96  5365.07  19.07
1288.4  28112.11  5302.49  18.86
1292.3  28036.25  5220.42  18.62
1296.2  27954.20  5136.70  18.38
1300.1  27848.52  5034.64  18.08
1303.9  27706.57  4914.22  17.74
1307.8  27559.31  4798.34  17.41
1311.7  27397.23  4667.25  17.04
1315.6  27238.78  4541.08  16.67
1319.5  27066.08  4411.34  16.30
1323.3  26913.00  4276.42  15.89
1327.2  26776.06  4155.84  15.52
1331.1  26621.95  4036.71  15.16
1335.0  26429.02  3915.68  14.82
1338.8  26290.11  3815.90  14.51
1342.7  26169.42  3723.13  14.23
1346.5  25929.13  3607.87  13.91
1350.4  25728.90  3511.14  13.65
1354.3  25457.85  3409.39  13.39
1358.1  25158.95  3302.39  13.13
1362.0  24980.59  3220.67  12.89
1365.8  24927.82  3157.84  12.67
1369.7  24996.19  3107.21  12.43
1373.5  24961.93  3036.25  12.16
1377.4  24802.90  2922.65  11.78
1381.2  24660.90  2774.57  11.25
1385.1  24643.85  2634.55  10.69
1389.0  24592.75  2504.82  10.19
1392.8  24461.78  2369.39  9.69
1396.6  24365.22  2235.46  9.17
1400.5  24231.60  2113.03  8.72
1404.3  24125.27  2016.37  8.36
