/*** Spectra Vista SIG Data ***/
name= GS2.sig
comm= SIG file reprocesed for matching/overlap;Averaged Ref/Tar of files: GD4S4,GD4S5,GD4S6
data=
346.4  1.00  69.43  6943.00
347.9  1.00  68.61  6861.00
349.5  1.00  73.63  7363.00
351.1  1.00  70.72  7072.00
352.6  1.00  69.79  6979.00
354.2  1.00  75.05  7505.00
355.7  1.00  77.90  7790.00
357.3  1.00  82.53  8253.00
358.8  1.00  82.02  8202.00
360.4  1.00  85.59  8559.00
361.9  1.00  82.65  8265.00
363.5  1.00  84.49  8449.00
365.1  1.00  83.22  8322.00
366.6  1.00  86.77  8677.00
368.2  1.00  86.62  8662.00
369.7  1.00  84.46  8446.00
371.3  1.00  86.48  8648.00
372.8  1.00  88.75  8875.00
374.4  1.00  89.45  8945.00
375.9  1.00  90.91  9091.00
377.4  1.00  88.47  8847.00
379.0  1.00  94.20  9420.00
380.5  1.00  91.71  9171.00
382.1  1.00  89.63  8963.00
383.6  1.00  93.37  9337.00
385.2  1.00  89.65  8965.00
386.7  1.00  93.32  9332.00
388.3  1.00  95.29  9529.00
389.8  1.00  101.02  10102.00
391.3  1.00  105.64  10564.00
392.9  1.00  106.40  10640.00
394.4  1.00  116.13  11613.00
395.9  1.00  124.13  12413.00
397.5  1.00  132.00  13200.00
399.0  1.00  133.49  13349.00
400.6  1.00  134.33  13433.00
402.1  1.00  131.06  13106.00
403.6  1.00  130.42  13042.00
405.1  1.00  133.29  13329.00
406.7  1.00  137.39  13739.00
408.2  1.00  141.23  14123.00
409.7  1.00  147.99  14799.00
411.3  1.00  156.06  15606.00
412.8  1.00  161.32  16132.00
414.3  1.00  167.90  16790.00
415.8  1.00  176.17  17617.00
417.4  1.00  182.67  18267.00
418.9  1.00  191.44  19144.00
420.4  1.00  193.92  19392.00
421.9  1.00  199.09  19909.00
423.5  1.00  198.94  19894.00
425.0  1.00  203.62  20362.00
426.5  1.00  206.26  20626.00
428.0  1.00  209.90  20990.00
429.5  1.00  213.04  21304.00
431.1  1.00  219.94  21994.00
432.6  1.00  226.60  22660.00
434.1  1.00  234.08  23408.00
435.6  1.00  243.04  24304.00
437.1  1.00  248.82  24882.00
438.6  1.00  256.24  25624.00
440.1  1.00  265.26  26526.00
441.6  1.00  274.88  27488.00
443.1  1.00  285.80  28580.00
444.7  1.00  298.25  29825.00
446.2  1.00  308.87  30887.00
447.7  1.00  321.61  32161.00
449.2  1.00  334.22  33422.00
450.7  1.00  345.28  34528.00
452.2  1.00  358.03  35803.00
453.7  1.00  367.79  36779.00
455.2  1.00  383.17  38317.00
456.7  1.00  396.47  39647.00
458.2  1.00  412.88  41288.00
459.7  1.00  428.28  42828.00
461.2  1.00  444.07  44407.00
462.7  1.00  458.12  45812.00
464.2  1.00  473.24  47324.00
465.7  1.00  485.65  48565.00
467.2  1.00  497.42  49742.00
468.7  1.00  510.67  51067.00
470.2  1.00  519.90  51990.00
471.7  1.00  535.49  53549.00
473.2  1.00  555.15  55515.00
474.6  1.00  574.22  57422.00
476.1  1.00  584.13  58413.00
477.6  1.00  586.20  58620.00
479.1  1.00  591.00  59100.00
480.6  1.00  596.21  59621.00
482.1  1.00  610.65  61065.00
483.6  1.00  623.80  62380.00
485.1  1.00  640.36  64036.00
486.6  1.00  662.95  66295.00
488.0  1.00  686.84  68684.00
489.5  1.00  716.95  71695.00
491.0  1.00  748.52  74852.00
492.5  1.00  783.11  78311.00
494.0  1.00  824.91  82491.00
495.4  1.00  863.94  86394.00
496.9  1.00  911.60  91160.00
498.4  1.00  961.23  96123.00
499.9  1.00  1012.29  101229.00
501.4  1.00  1069.57  106957.00
502.8  1.00  1128.85  112885.00
504.3  1.00  1190.40  119040.00
505.8  1.00  1256.35  125635.00
507.2  1.00  1319.12  131912.00
508.7  1.00  1379.85  137985.00
510.2  1.00  1441.37  144137.00
511.6  1.00  1502.59  150259.00
513.1  1.00  1571.05  157105.00
514.6  1.00  1641.22  164122.00
516.0  1.00  1709.65  170965.00
517.5  1.00  1786.40  178640.00
519.0  1.00  1867.58  186758.00
520.5  1.00  1946.02  194602.00
521.9  1.00  2031.11  203111.00
523.4  1.00  2121.03  212103.00
524.8  1.00  2207.59  220759.00
526.3  1.00  2299.44  229944.00
527.8  1.00  2387.84  238784.00
529.2  1.00  2470.14  247014.00
530.7  1.00  2555.70  255570.00
532.1  1.00  2633.51  263351.00
533.6  1.00  2717.08  271708.00
535.0  1.00  2798.10  279810.00
536.5  1.00  2877.77  287777.00
538.0  1.00  2955.41  295541.00
539.4  1.00  3029.14  302914.00
540.9  1.00  3117.57  311757.00
542.3  1.00  3204.85  320485.00
543.8  1.00  3277.09  327709.00
545.2  1.00  3316.56  331656.00
546.6  1.00  3335.35  333535.00
548.1  1.00  3356.05  335605.00
549.5  1.00  3374.24  337424.00
551.0  1.00  3393.24  339324.00
552.4  1.00  3415.00  341500.00
553.9  1.00  3429.52  342952.00
555.3  1.00  3445.77  344577.00
556.8  1.00  3471.76  347176.00
558.2  1.00  3495.71  349571.00
559.6  1.00  3521.59  352159.00
561.1  1.00  3557.24  355724.00
562.5  1.00  3592.70  359270.00
564.0  1.00  3637.79  363779.00
565.4  1.00  3677.13  367713.00
566.8  1.00  3722.16  372216.00
568.3  1.00  3762.36  376236.00
569.7  1.00  3803.49  380349.00
571.1  1.00  3836.34  383634.00
572.6  1.00  3868.88  386888.00
574.0  1.00  3900.93  390093.00
575.4  1.00  3927.49  392749.00
576.9  1.00  3953.56  395356.00
578.3  1.00  3972.54  397254.00
579.7  1.00  3996.53  399653.00
581.1  1.00  4009.68  400968.00
582.6  1.00  4026.40  402640.00
584.0  1.00  4043.12  404312.00
585.4  1.00  4073.85  407385.00
586.8  1.00  4122.64  412264.00
588.3  1.00  4181.27  418127.00
589.7  1.00  4230.56  423056.00
591.1  1.00  4255.18  425518.00
592.5  1.00  4260.59  426059.00
594.0  1.00  4254.71  425471.00
595.4  1.00  4243.73  424373.00
596.8  1.00  4231.37  423137.00
598.2  1.00  4221.83  422183.00
599.6  1.00  4210.24  421024.00
601.0  1.00  4206.93  420693.00
602.4  1.00  4204.25  420425.00
603.9  1.00  4206.10  420610.00
605.3  1.00  4206.50  420650.00
606.7  1.00  4196.88  419688.00
608.1  1.00  4200.04  420004.00
609.5  1.00  4205.10  420510.00
610.9  1.00  4213.43  421343.00
612.3  1.00  4217.62  421762.00
613.7  1.00  4229.78  422978.00
615.1  1.00  4222.04  422204.00
616.5  1.00  4217.30  421730.00
617.9  1.00  4238.08  423808.00
619.3  1.00  4265.66  426566.00
620.7  1.00  4313.56  431356.00
622.1  1.00  4323.72  432372.00
623.5  1.00  4331.51  433151.00
624.9  1.00  4366.39  436639.00
626.3  1.00  4396.11  439611.00
627.7  1.00  4358.24  435824.00
629.1  1.00  4334.20  433420.00
630.5  1.00  4333.29  433329.00
631.9  1.00  4338.16  433816.00
633.3  1.00  4336.39  433639.00
634.7  1.00  4342.56  434256.00
636.1  1.00  4312.32  431232.00
637.5  1.00  4268.48  426848.00
638.9  1.00  4216.45  421645.00
640.2  1.00  4152.12  415212.00
641.6  1.00  4076.44  407644.00
643.0  1.00  4009.13  400913.00
644.4  1.00  3959.89  395989.00
645.8  1.00  3923.48  392348.00
647.2  1.00  3922.19  392219.00
648.5  1.00  3920.84  392084.00
649.9  1.00  3910.66  391066.00
651.3  1.00  3917.65  391765.00
652.7  1.00  3910.00  391000.00
654.1  1.00  3780.20  378020.00
655.5  1.00  3615.17  361517.00
656.8  1.00  3457.89  345789.00
658.2  1.00  3356.32  335632.00
659.6  1.00  3281.63  328163.00
660.9  1.00  3205.79  320579.00
662.3  1.00  3125.45  312545.00
663.7  1.00  3047.10  304710.00
665.0  1.00  2970.34  297034.00
666.4  1.00  2904.49  290449.00
667.8  1.00  2855.63  285563.00
669.1  1.00  2806.15  280615.00
670.5  1.00  2780.12  278012.00
671.9  1.00  2753.86  275386.00
673.2  1.00  2748.48  274848.00
674.6  1.00  2760.28  276028.00
676.0  1.00  2788.62  278862.00
677.3  1.00  2834.25  283425.00
678.7  1.00  2900.63  290063.00
680.0  1.00  3000.55  300055.00
681.4  1.00  3138.35  313835.00
682.8  1.00  3318.92  331892.00
684.1  1.00  3553.05  355305.00
685.5  1.00  3835.51  383551.00
686.8  1.00  4165.93  416593.00
688.2  1.00  4536.53  453653.00
689.5  1.00  4926.94  492694.00
690.9  1.00  5346.54  534654.00
692.2  1.00  5775.07  577507.00
693.6  1.00  6226.15  622615.00
694.9  1.00  6657.19  665719.00
696.2  1.00  7089.92  708992.00
697.6  1.00  7509.54  750954.00
698.9  1.00  7920.53  792053.00
700.3  1.00  8314.20  831420.00
701.6  1.00  8685.47  868547.00
703.0  1.00  9032.73  903273.00
704.3  1.00  9325.28  932528.00
705.6  1.00  9605.22  960522.00
707.0  1.00  9866.88  986688.00
708.3  1.00  10080.03  1008003.00
709.6  1.00  10274.44  1027444.00
711.0  1.00  10442.15  1044215.00
712.3  1.00  10599.37  1059937.00
713.6  1.00  10764.12  1076412.00
714.9  1.00  10915.83  1091583.00
716.3  1.00  11065.70  1106570.00
717.6  1.00  11227.10  1122710.00
718.9  1.00  11338.36  1133836.00
720.2  1.00  11396.86  1139686.00
721.6  1.00  11467.65  1146765.00
722.9  1.00  11528.44  1152844.00
724.2  1.00  11563.03  1156303.00
725.5  1.00  11612.94  1161294.00
726.8  1.00  11640.44  1164044.00
728.1  1.00  11678.82  1167882.00
729.5  1.00  11719.91  1171991.00
730.8  1.00  11769.43  1176943.00
732.1  1.00  11807.65  1180765.00
733.4  1.00  11850.70  1185070.00
734.7  1.00  11878.37  1187837.00
736.0  1.00  11932.09  1193209.00
737.3  1.00  11977.35  1197735.00
738.6  1.00  12054.40  1205440.00
739.9  1.00  12169.03  1216903.00
741.2  1.00  12245.14  1224514.00
742.5  1.00  12376.17  1237617.00
743.8  1.00  12566.98  1256698.00
745.1  1.00  12828.35  1282835.00
746.4  1.00  13111.37  1311137.00
747.7  1.00  13405.31  1340531.00
749.0  1.00  13685.53  1368553.00
750.3  1.00  13839.76  1383976.00
751.6  1.00  13839.85  1383985.00
752.9  1.00  13758.88  1375888.00
754.2  1.00  13650.39  1365039.00
755.4  1.00  13530.68  1353068.00
756.7  1.00  13523.35  1352335.00
758.0  1.00  13580.27  1358027.00
759.3  1.00  13713.49  1371349.00
760.6  1.00  13890.39  1389039.00
761.9  1.00  14048.49  1404849.00
763.1  1.00  14144.13  1414413.00
764.4  1.00  14259.45  1425945.00
765.7  1.00  14351.78  1435178.00
767.0  1.00  14428.62  1442862.00
768.2  1.00  14501.98  1450198.00
769.5  1.00  14566.07  1456607.00
770.8  1.00  14652.04  1465204.00
772.0  1.00  14696.15  1469615.00
773.3  1.00  14764.29  1476429.00
774.6  1.00  14828.33  1482833.00
775.8  1.00  14868.53  1486853.00
777.1  1.00  14896.93  1489693.00
778.4  1.00  14886.78  1488678.00
779.6  1.00  14909.11  1490911.00
780.9  1.00  14912.53  1491253.00
782.1  1.00  14891.77  1489177.00
783.4  1.00  14904.17  1490417.00
784.6  1.00  14938.06  1493806.00
785.9  1.00  15074.21  1507421.00
787.1  1.00  15296.24  1529624.00
788.4  1.00  15424.39  1542439.00
789.6  1.00  15366.35  1536635.00
790.9  1.00  15210.73  1521073.00
792.1  1.00  15074.00  1507400.00
793.4  1.00  14934.71  1493471.00
794.6  1.00  14830.85  1483085.00
795.8  1.00  14751.04  1475104.00
797.1  1.00  14667.76  1466776.00
798.3  1.00  14619.22  1461922.00
799.5  1.00  14585.97  1458597.00
800.8  1.00  14554.78  1455478.00
802.0  1.00  14516.73  1451673.00
803.2  1.00  14461.59  1446159.00
804.5  1.00  14424.96  1442496.00
805.7  1.00  14381.55  1438155.00
806.9  1.00  14341.24  1434124.00
808.1  1.00  14326.28  1432628.00
809.4  1.00  14313.39  1431339.00
810.6  1.00  14289.43  1428943.00
811.8  1.00  14290.89  1429089.00
813.0  1.00  14309.97  1430997.00
814.2  1.00  14330.57  1433057.00
815.4  1.00  14362.48  1436248.00
816.6  1.00  14381.79  1438179.00
817.9  1.00  14387.79  1438779.00
819.1  1.00  14358.72  1435872.00
820.3  1.00  14314.43  1431443.00
821.5  1.00  14293.10  1429310.00
822.7  1.00  14273.79  1427379.00
823.9  1.00  14266.54  1426654.00
825.1  1.00  14259.88  1425988.00
826.3  1.00  14255.58  1425558.00
827.5  1.00  14262.78  1426278.00
828.7  1.00  14256.08  1425608.00
829.9  1.00  14261.63  1426163.00
831.0  1.00  14290.76  1429076.00
832.2  1.00  14322.35  1432235.00
833.4  1.00  14339.94  1433994.00
834.6  1.00  14373.13  1437313.00
835.8  1.00  14398.65  1439865.00
837.0  1.00  14454.11  1445411.00
838.1  1.00  14513.52  1451352.00
839.3  1.00  14553.51  1455351.00
840.5  1.00  14607.26  1460726.00
841.7  1.00  14689.30  1468930.00
842.9  1.00  14772.13  1477213.00
844.0  1.00  14829.90  1482990.00
845.2  1.00  14899.40  1489940.00
846.4  1.00  14951.67  1495167.00
847.5  1.00  15044.21  1504421.00
848.7  1.00  15119.69  1511969.00
849.9  1.00  15174.44  1517444.00
851.0  1.00  15186.63  1518663.00
852.2  1.00  15212.30  1521230.00
853.3  1.00  15211.21  1521121.00
854.5  1.00  15209.45  1520945.00
855.6  1.00  15224.14  1522414.00
856.8  1.00  15263.84  1526384.00
857.9  1.00  15271.15  1527115.00
859.1  1.00  15319.79  1531979.00
860.2  1.00  15333.67  1533367.00
861.4  1.00  15359.26  1535926.00
862.5  1.00  15391.24  1539124.00
863.7  1.00  15427.41  1542741.00
864.8  1.00  15447.51  1544751.00
865.9  1.00  15447.73  1544773.00
867.1  1.00  15465.31  1546531.00
868.2  1.00  15483.22  1548322.00
869.3  1.00  15484.78  1548478.00
870.5  1.00  15469.43  1546943.00
871.6  1.00  15486.54  1548654.00
872.7  1.00  15529.71  1552971.00
873.9  1.00  15523.79  1552379.00
875.0  1.00  15515.43  1551543.00
876.1  1.00  15503.59  1550359.00
877.2  1.00  15516.71  1551671.00
878.3  1.00  15504.14  1550414.00
879.4  1.00  15512.00  1551200.00
880.5  1.00  15521.69  1552169.00
881.7  1.00  15515.89  1551589.00
882.8  1.00  15513.89  1551389.00
883.9  1.00  15499.02  1549902.00
885.0  1.00  15458.26  1545826.00
886.1  1.00  15417.74  1541774.00
887.2  1.00  15327.66  1532766.00
888.3  1.00  15275.86  1527586.00
889.4  1.00  15207.58  1520758.00
890.5  1.00  15171.62  1517162.00
891.6  1.00  15133.14  1513314.00
892.7  1.00  15117.77  1511777.00
893.8  1.00  15135.61  1513561.00
894.9  1.00  15125.37  1512537.00
896.0  1.00  15084.14  1508414.00
897.0  1.00  15077.29  1507729.00
898.1  1.00  15071.14  1507114.00
899.2  1.00  15057.95  1505795.00
900.3  1.00  15022.12  1502212.00
901.4  1.00  14972.75  1497275.00
902.4  1.00  14967.02  1496702.00
903.5  1.00  14932.48  1493248.00
904.6  1.00  14925.92  1492592.00
905.7  1.00  14890.80  1489080.00
906.7  1.00  14864.88  1486488.00
907.8  1.00  14853.56  1485356.00
908.9  1.00  14810.77  1481077.00
909.9  1.00  14766.76  1476676.00
911.0  1.00  14734.13  1473413.00
912.1  1.00  14676.44  1467644.00
913.1  1.00  14622.40  1462240.00
914.2  1.00  14568.28  1456828.00
915.2  1.00  14549.44  1454944.00
916.3  1.00  14515.55  1451555.00
917.3  1.00  14466.11  1446611.00
918.4  1.00  14401.02  1440102.00
919.4  1.00  14336.25  1433625.00
920.5  1.00  14301.54  1430154.00
921.5  1.00  14262.68  1426268.00
922.6  1.00  14189.39  1418939.00
923.6  1.00  14177.94  1417794.00
924.7  1.00  14130.52  1413052.00
925.7  1.00  14065.87  1406587.00
926.7  1.00  14033.56  1403356.00
927.8  1.00  13989.81  1398981.00
928.8  1.00  13963.63  1396363.00
929.9  1.00  13951.88  1395188.00
930.9  1.00  13962.08  1396208.00
931.9  1.00  13978.16  1397816.00
932.9  1.00  14007.08  1400708.00
934.0  1.00  13950.86  1395086.00
935.0  1.00  13897.85  1389785.00
936.0  1.00  13842.86  1384286.00
937.0  1.00  13772.82  1377282.00
938.1  1.00  13698.53  1369853.00
939.1  1.00  13653.48  1365348.00
940.1  1.00  13605.70  1360570.00
941.1  1.00  13623.79  1362379.00
942.1  1.00  13633.94  1363394.00
943.1  1.00  13622.70  1362270.00
944.1  1.00  13643.52  1364352.00
945.2  1.00  13586.80  1358680.00
946.2  1.00  13522.31  1352231.00
947.2  1.00  13493.60  1349360.00
948.2  1.00  13455.18  1345518.00
949.2  1.00  13396.29  1339629.00
950.2  1.00  13342.82  1334282.00
951.2  1.00  13271.83  1327183.00
952.2  1.00  13202.59  1320259.00
953.2  1.00  13170.73  1317073.00
954.2  1.00  13133.34  1313334.00
955.2  1.00  13061.20  1306120.00
956.2  1.00  13005.13  1300513.00
957.2  1.00  12962.52  1296252.00
958.2  1.00  12923.15  1292315.00
959.2  1.00  12904.86  1290486.00
960.1  1.00  12887.54  1288754.00
961.1  1.00  12883.87  1288387.00
962.1  1.00  12867.75  1286775.00
963.1  1.00  12854.88  1285488.00
964.1  1.00  12876.27  1287627.00
965.1  1.00  12902.15  1290215.00
966.1  1.00  12868.44  1286844.00
967.0  1.00  12902.69  1290269.00
968.0  1.00  12897.95  1289795.00
969.0  1.00  12925.60  1292560.00
970.0  1.00  12930.07  1293007.00
971.0  1.00  12955.55  1295555.00
971.9  1.00  12991.20  1299120.00
972.9  1.00  12998.59  1299859.00
973.9  1.00  13037.77  1303777.00
974.9  1.00  13024.56  1302456.00
975.8  1.00  13037.03  1303703.00
976.8  1.00  13022.91  1302291.00
977.8  1.00  13089.19  1308919.00
978.8  1.00  13122.87  1312287.00
979.7  1.00  13164.53  1316453.00
981.4  1.00  13034.59  1303459.00
985.3  1.00  13002.73  1300273.00
989.3  1.00  13033.51  1303351.00
993.3  1.00  13063.52  1306352.00
997.2  1.00  13055.13  1305513.00
1001.2  1.00  13107.08  1310708.00
1005.2  1.00  13210.40  1321040.00
1009.1  1.00  13385.45  1338545.00
1013.1  1.00  13594.36  1359436.00
1017.1  1.00  13768.42  1376842.00
1021.0  1.00  13899.75  1389975.00
1025.0  1.00  14027.95  1402795.00
1029.0  1.00  14109.69  1410969.00
1032.9  1.00  14208.00  1420800.00
1036.9  1.00  14343.90  1434390.00
1040.9  1.00  14516.95  1451695.00
1044.8  1.00  14722.31  1472231.00
1048.8  1.00  14889.91  1488991.00
1052.7  1.00  15025.25  1502525.00
1056.7  1.00  15117.50  1511750.00
1060.7  1.00  15185.65  1518565.00
1064.6  1.00  15243.36  1524336.00
1068.6  1.00  15250.40  1525040.00
1072.5  1.00  15222.21  1522221.00
1076.5  1.00  15198.54  1519854.00
1080.4  1.00  15159.74  1515974.00
1084.4  1.00  15123.70  1512370.00
1088.3  1.00  15084.90  1508490.00
1092.3  1.00  14977.74  1497774.00
1096.2  1.00  14861.71  1486171.00
1100.2  1.00  14758.06  1475806.00
1104.1  1.00  14612.85  1461285.00
1108.1  1.00  14489.22  1448922.00
1112.0  1.00  14333.90  1433390.00
1116.0  1.00  14125.98  1412598.00
1119.9  1.00  13895.98  1389598.00
1123.9  1.00  13682.42  1368242.00
1127.8  1.00  13359.36  1335936.00
1131.8  1.00  12928.60  1292860.00
1135.7  1.00  12417.46  1241746.00
1139.6  1.00  11860.77  1186077.00
1143.6  1.00  11330.38  1133038.00
1147.5  1.00  10880.04  1088004.00
1151.4  1.00  10505.84  1050584.00
1155.4  1.00  10288.59  1028859.00
1159.3  1.00  10154.14  1015414.00
1163.2  1.00  10019.29  1001929.00
1167.2  1.00  9953.30  995330.00
1171.1  1.00  9900.95  990095.00
1175.0  1.00  9840.93  984093.00
1179.0  1.00  9798.63  979863.00
1182.9  1.00  9777.46  977746.00
1186.8  1.00  9741.74  974174.00
1190.7  1.00  9660.94  966094.00
1194.7  1.00  9587.25  958725.00
1198.6  1.00  9535.68  953568.00
1202.5  1.00  9506.56  950656.00
1206.4  1.00  9507.22  950722.00
1210.3  1.00  9520.62  952062.00
1214.2  1.00  9541.54  954154.00
1218.2  1.00  9572.23  957223.00
1222.1  1.00  9615.40  961540.00
1226.0  1.00  9657.57  965757.00
1229.9  1.00  9693.70  969370.00
1233.8  1.00  9723.84  972384.00
1237.7  1.00  9757.93  975793.00
1241.6  1.00  9784.24  978424.00
1245.5  1.00  9778.98  977898.00
1249.4  1.00  9781.67  978167.00
1253.3  1.00  9800.67  980067.00
1257.2  1.00  9815.89  981589.00
1261.1  1.00  9809.42  980942.00
1265.0  1.00  9788.00  978800.00
1268.9  1.00  9740.26  974026.00
1272.8  1.00  9730.85  973085.00
1276.7  1.00  9741.86  974186.00
1280.6  1.00  9714.45  971445.00
1284.5  1.00  9636.74  963674.00
1288.4  1.00  9561.73  956173.00
1292.3  1.00  9446.25  944625.00
1296.2  1.00  9308.11  930811.00
1300.1  1.00  9148.94  914894.00
1303.9  1.00  8950.96  895096.00
1307.8  1.00  8736.13  873613.00
1311.7  1.00  8514.03  851403.00
1315.6  1.00  8280.09  828009.00
1319.5  1.00  8027.78  802778.00
1323.3  1.00  7770.27  777027.00
1327.2  1.00  7518.15  751815.00
1331.1  1.00  7260.46  726046.00
1335.0  1.00  6997.96  699796.00
1338.8  1.00  6764.99  676499.00
1342.7  1.00  6553.76  655376.00
1346.5  1.00  6326.85  632685.00
1350.4  1.00  6122.29  612229.00
1354.3  1.00  5910.56  591056.00
1358.1  1.00  5696.67  569667.00
1362.0  1.00  5516.42  551642.00
1365.8  1.00  5352.22  535222.00
1369.7  1.00  5173.65  517365.00
1373.5  1.00  4916.44  491644.00
1377.4  1.00  4591.52  459152.00
1381.2  1.00  4223.89  422389.00
1385.1  1.00  3861.21  386121.00
1389.0  1.00  3496.38  349638.00
1392.8  1.00  3137.29  313729.00
1396.6  1.00  2824.84  282484.00
1400.5  1.00  2558.32  255832.00
1404.3  1.00  2351.75  235175.00
1408.2  1.00  2186.97  218697.00
1412.0  1.00  2060.85  206085.00
1415.8  1.00  1967.68  196768.00
1419.6  1.00  1891.24  189124.00
1423.5  1.00  1837.69  183769.00
1427.3  1.00  1795.58  179558.00
1431.1  1.00  1763.90  176390.00
1434.9  1.00  1736.16  173616.00
1438.8  1.00  1716.19  171619.00
1442.6  1.00  1705.61  170561.00
1446.4  1.00  1693.41  169341.00
1450.2  1.00  1687.50  168750.00
