/*** Spectra Vista SIG Data ***/
name= RT1.sig
comm= SIG file reprocesed for matching/overlap;Averaged Ref/Tar of files: RD5T1,RD5T2,RD5T3
data=
346.4  366.28  66.25  18.09
347.9  400.03  67.14  16.78
349.5  432.12  67.39  15.60
351.1  468.00  67.60  14.44
352.6  496.51  72.11  14.52
354.2  520.33  73.09  14.05
355.7  575.84  78.80  13.68
357.3  598.14  82.06  13.72
358.8  616.87  82.95  13.45
360.4  668.33  83.48  12.49
361.9  686.05  88.22  12.86
363.5  715.01  84.02  11.75
365.1  743.78  84.84  11.41
366.6  778.54  87.46  11.23
368.2  824.27  87.52  10.62
369.7  873.39  87.72  10.04
371.3  928.49  90.00  9.69
372.8  977.74  94.73  9.69
374.4  1016.27  94.79  9.33
375.9  1052.58  95.99  9.12
377.4  1084.71  96.49  8.90
379.0  1129.79  96.54  8.54
380.5  1157.14  97.04  8.39
382.1  1186.43  98.11  8.27
383.6  1234.64  93.56  7.58
385.2  1293.88  93.68  7.24
386.7  1345.63  98.01  7.28
388.3  1410.38  99.64  7.06
389.8  1464.46  101.01  6.90
391.3  1527.57  103.98  6.81
392.9  1567.60  109.44  6.98
394.4  1609.87  112.37  6.98
395.9  1662.63  116.81  7.03
397.5  1749.05  121.88  6.97
399.0  1827.74  123.39  6.75
400.6  1876.29  119.43  6.37
402.1  1904.04  116.27  6.11
403.6  1943.17  113.16  5.82
405.1  1994.81  113.34  5.68
406.7  2061.92  116.48  5.65
408.2  2135.06  117.61  5.51
409.7  2198.56  119.47  5.43
411.3  2272.05  123.78  5.45
412.8  2335.64  126.88  5.43
414.3  2399.77  132.16  5.51
415.8  2475.00  135.83  5.49
417.4  2547.71  138.81  5.45
418.9  2612.23  140.16  5.37
420.4  2658.25  142.07  5.34
421.9  2705.56  141.81  5.24
423.5  2743.63  143.99  5.25
425.0  2788.02  141.44  5.07
426.5  2844.45  143.62  5.05
428.0  2917.63  145.45  4.99
429.5  3009.90  146.28  4.86
431.1  3112.45  151.32  4.86
432.6  3227.88  154.57  4.79
434.1  3329.29  157.47  4.73
435.6  3423.98  161.25  4.71
437.1  3517.80  166.79  4.74
438.6  3607.74  171.35  4.75
440.1  3694.39  174.33  4.72
441.6  3790.73  176.75  4.66
443.1  3873.83  180.50  4.66
444.7  3959.99  185.64  4.69
446.2  4024.76  189.73  4.71
447.7  4101.41  192.59  4.70
449.2  4174.20  194.54  4.66
450.7  4238.00  194.83  4.60
452.2  4313.18  196.24  4.55
453.7  4393.64  198.05  4.51
455.2  4491.99  201.76  4.49
456.7  4618.24  204.51  4.43
458.2  4761.06  212.15  4.46
459.7  4899.13  216.65  4.42
461.2  5044.37  224.51  4.45
462.7  5165.05  229.24  4.44
464.2  5287.79  234.24  4.43
465.7  5408.14  241.19  4.46
467.2  5518.98  247.69  4.49
468.7  5631.00  253.33  4.50
470.2  5705.20  262.46  4.60
471.7  5821.13  269.48  4.63
473.2  6011.22  277.33  4.61
474.6  6153.75  281.88  4.58
476.1  6204.18  278.71  4.49
477.6  6220.94  281.10  4.52
479.1  6250.52  281.62  4.51
480.6  6293.37  283.21  4.50
482.1  6374.96  285.41  4.48
483.6  6474.12  289.23  4.47
485.1  6599.29  295.69  4.48
486.6  6739.10  301.60  4.48
488.0  6898.13  309.51  4.49
489.5  7058.36  317.08  4.49
491.0  7224.81  321.96  4.46
492.5  7392.87  331.24  4.48
494.0  7557.79  340.73  4.51
495.4  7702.20  347.38  4.51
496.9  7844.83  357.05  4.55
498.4  7990.29  365.35  4.57
499.9  8131.50  373.16  4.59
501.4  8263.45  381.46  4.62
502.8  8392.79  388.77  4.63
504.3  8499.60  396.96  4.67
505.8  8611.18  404.73  4.70
507.2  8674.01  411.13  4.74
508.7  8728.20  416.27  4.77
510.2  8764.92  423.06  4.83
511.6  8789.76  427.27  4.86
513.1  8840.43  433.59  4.90
514.6  8904.34  438.81  4.93
516.0  8958.85  443.37  4.95
517.5  9056.55  451.42  4.98
519.0  9171.31  462.24  5.04
520.5  9287.32  469.37  5.05
521.9  9437.16  481.82  5.11
523.4  9612.27  494.34  5.14
524.8  9785.79  507.52  5.19
526.3  9984.58  522.18  5.23
527.8  10184.06  538.25  5.29
529.2  10366.76  552.87  5.33
530.7  10567.61  567.89  5.37
532.1  10746.40  583.10  5.43
533.6  10959.02  600.37  5.48
535.0  11168.56  619.78  5.55
536.5  11376.00  635.63  5.59
538.0  11592.92  654.43  5.65
539.4  11785.91  674.58  5.72
540.9  12037.93  698.46  5.80
542.3  12246.63  723.51  5.91
543.8  12400.56  742.04  5.98
545.2  12445.48  753.85  6.06
546.6  12442.01  760.72  6.11
548.1  12455.19  770.76  6.19
549.5  12460.55  779.46  6.26
551.0  12456.77  788.88  6.33
552.4  12484.13  799.84  6.41
553.9  12491.52  810.51  6.49
555.3  12509.64  822.86  6.58
556.8  12569.08  837.59  6.66
558.2  12630.94  854.21  6.76
559.6  12713.51  869.10  6.84
561.1  12831.00  889.85  6.94
562.5  12959.42  912.46  7.04
564.0  13129.35  937.37  7.14
565.4  13288.41  962.58  7.24
566.8  13487.87  992.55  7.36
568.3  13678.39  1024.22  7.49
569.7  13879.32  1055.21  7.60
571.1  14074.77  1086.83  7.72
572.6  14269.77  1121.36  7.86
574.0  14463.08  1157.97  8.01
575.4  14650.03  1192.62  8.14
576.9  14818.07  1227.19  8.28
578.3  14977.46  1259.71  8.41
579.7  15131.24  1295.78  8.56
581.1  15254.19  1329.82  8.72
582.6  15387.18  1364.92  8.87
584.0  15508.86  1399.34  9.02
585.4  15681.05  1442.41  9.20
586.8  15909.04  1494.29  9.39
588.3  16162.38  1547.05  9.57
589.7  16371.81  1596.81  9.75
591.1  16519.39  1638.33  9.92
592.5  16589.78  1669.12  10.06
594.0  16627.80  1697.11  10.21
595.4  16637.76  1721.04  10.34
596.8  16651.64  1750.04  10.51
598.2  16659.51  1775.07  10.65
599.6  16659.36  1803.11  10.82
601.0  16705.59  1837.59  11.00
602.4  16752.94  1869.40  11.16
603.9  16822.23  1907.40  11.34
605.3  16905.11  1946.41  11.51
606.7  16973.10  1983.96  11.69
608.1  17114.04  2029.51  11.86
609.5  17255.15  2080.35  12.06
610.9  17434.91  2135.09  12.25
612.3  17598.49  2192.97  12.46
613.7  17818.60  2257.19  12.67
615.1  17967.42  2315.41  12.89
616.5  18122.06  2376.58  13.11
617.9  18356.64  2452.04  13.36
619.3  18578.68  2528.95  13.61
620.7  18848.67  2617.92  13.89
622.1  19119.58  2692.03  14.08
623.5  19414.06  2756.05  14.20
624.9  19741.18  2833.30  14.35
626.3  19952.52  2903.07  14.55
627.7  19741.37  2913.18  14.76
629.1  19544.02  2918.82  14.93
630.5  19457.12  2936.02  15.09
631.9  19461.81  2982.33  15.32
633.3  19457.49  3042.53  15.64
634.7  19533.17  3115.91  15.95
636.1  19566.68  3178.89  16.25
637.5  19597.55  3245.32  16.56
638.9  19677.50  3319.50  16.87
640.2  19731.43  3376.49  17.11
641.6  19754.28  3414.84  17.29
643.0  19715.36  3431.45  17.40
644.4  19707.26  3434.91  17.43
645.8  19650.11  3439.14  17.50
647.2  19716.78  3489.29  17.70
648.5  19765.84  3546.48  17.94
649.9  19671.60  3579.93  18.20
651.3  19608.23  3622.36  18.47
652.7  19503.68  3654.66  18.74
654.1  19390.95  3613.09  18.63
655.5  19238.75  3551.18  18.46
656.8  19118.09  3498.28  18.30
658.2  19225.93  3497.25  18.19
659.6  19449.31  3522.06  18.11
660.9  19643.18  3547.96  18.06
662.3  19825.21  3575.14  18.03
663.7  20008.80  3605.00  18.02
665.0  20165.89  3640.21  18.05
666.4  20328.89  3682.17  18.11
667.8  20535.62  3745.44  18.24
669.1  20711.76  3805.88  18.38
670.5  20914.18  3888.65  18.59
671.9  21055.86  3971.88  18.86
673.2  21237.33  4080.87  19.22
674.6  21400.77  4201.93  19.63
676.0  21596.49  4341.89  20.10
677.3  21793.24  4495.03  20.63
678.7  21992.69  4662.96  21.20
680.0  22269.19  4858.40  21.82
681.4  22542.00  5066.84  22.48
682.8  22829.63  5280.58  23.13
684.1  23112.18  5501.18  23.80
685.5  23364.31  5718.91  24.48
686.8  23617.23  5929.75  25.11
688.2  23841.32  6129.96  25.71
689.5  23927.84  6289.60  26.29
690.9  23997.39  6441.00  26.84
692.2  24047.78  6577.98  27.35
693.6  24110.83  6716.85  27.86
694.9  24095.99  6826.47  28.33
696.2  24121.97  6940.54  28.77
697.6  24149.95  7053.93  29.21
698.9  24174.48  7171.12  29.66
700.3  24215.57  7290.70  30.11
701.6  24264.40  7409.17  30.54
703.0  24323.35  7528.22  30.95
704.3  24329.34  7630.76  31.36
705.6  24327.41  7728.11  31.77
707.0  24334.75  7832.09  32.18
708.3  24282.08  7911.76  32.58
709.6  24223.21  7982.93  32.96
711.0  24124.28  8043.45  33.34
712.3  24015.02  8100.44  33.73
713.6  23977.17  8176.14  34.10
714.9  23907.38  8239.90  34.47
716.3  23880.58  8317.20  34.83
717.6  23876.83  8404.92  35.20
718.9  23805.06  8472.13  35.59
720.2  23675.16  8510.68  35.95
721.6  23576.15  8558.77  36.30
722.9  23446.45  8603.58  36.69
724.2  23274.82  8622.38  37.05
725.5  23133.68  8654.46  37.41
726.8  23009.81  8682.56  37.73
728.1  22933.91  8722.05  38.03
729.5  22856.87  8765.05  38.35
730.8  22796.53  8819.32  38.69
732.1  22719.29  8861.88  39.01
733.4  22660.56  8913.05  39.33
734.7  22602.67  8959.47  39.64
736.0  22569.89  9024.93  39.99
737.3  22520.76  9081.43  40.32
738.6  22554.56  9167.57  40.65
739.9  22633.16  9278.00  40.99
741.2  22698.59  9373.73  41.30
742.5  22841.25  9505.11  41.61
743.8  23091.34  9681.79  41.93
745.1  23491.07  9924.12  42.25
746.4  23957.57  10198.58  42.57
747.7  24466.55  10498.69  42.91
749.0  24948.63  10805.04  43.31
750.3  25229.30  11020.95  43.68
751.6  25175.69  11102.66  44.10
752.9  24925.64  11088.74  44.49
754.2  24630.59  11048.34  44.86
755.4  24314.44  10984.36  45.18
756.7  24210.69  11008.83  45.47
758.0  24235.24  11096.56  45.79
759.3  24394.18  11248.51  46.11
760.6  24621.52  11427.00  46.41
761.9  24823.09  11602.71  46.74
763.1  24955.30  11733.06  47.02
764.4  25125.21  11883.41  47.30
765.7  25257.38  12015.47  47.57
767.0  25349.99  12138.89  47.89
768.2  25431.84  12262.21  48.22
769.5  25509.93  12373.40  48.50
770.8  25646.87  12518.89  48.81
772.0  25674.66  12613.35  49.13
773.3  25762.96  12723.65  49.39
774.6  25839.71  12842.48  49.70
775.8  25921.43  12954.92  49.98
777.1  25948.26  13050.43  50.29
778.4  25918.05  13117.27  50.61
779.6  25945.86  13205.06  50.89
780.9  25904.00  13262.67  51.20
782.1  25811.51  13288.84  51.48
783.4  25819.04  13367.19  51.77
784.6  25849.06  13437.20  51.98
785.9  26028.56  13601.22  52.25
787.1  26416.14  13865.79  52.49
788.4  26716.91  14117.95  52.84
789.6  26732.54  14216.29  53.18
790.9  26499.75  14185.14  53.53
792.1  26215.36  14112.96  53.83
793.4  25939.41  14039.79  54.13
794.6  25766.06  14015.08  54.39
795.8  25608.38  14007.90  54.70
797.1  25427.85  13978.46  54.97
798.3  25301.10  13975.80  55.24
799.5  25235.55  14011.01  55.52
800.8  25155.70  14031.96  55.78
802.0  25074.70  14054.79  56.05
803.2  24986.56  14064.43  56.29
804.5  24925.76  14091.51  56.53
805.7  24855.66  14113.22  56.78
806.9  24776.64  14129.46  57.03
808.1  24708.89  14154.44  57.28
809.4  24677.19  14197.84  57.53
810.6  24617.78  14223.60  57.78
811.8  24606.91  14267.42  57.98
813.0  24601.75  14325.33  58.23
814.2  24620.30  14389.23  58.44
815.4  24684.78  14476.66  58.65
816.6  24715.54  14545.07  58.85
817.9  24752.29  14620.29  59.07
819.1  24717.85  14648.35  59.26
820.3  24615.89  14648.40  59.51
821.5  24558.22  14661.58  59.70
822.7  24525.20  14687.46  59.89
823.9  24512.51  14722.46  60.06
825.1  24512.73  14762.45  60.22
826.3  24527.23  14799.77  60.34
827.5  24554.23  14839.70  60.44
828.7  24585.24  14887.18  60.55
829.9  24620.63  14928.60  60.63
831.0  24677.45  14995.02  60.76
832.2  24735.00  15055.48  60.87
833.4  24800.15  15109.77  60.93
834.6  24827.34  15171.88  61.11
835.8  24886.58  15231.83  61.20
837.0  24941.18  15303.67  61.36
838.1  25036.55  15392.23  61.48
839.3  25073.20  15450.24  61.62
840.5  25138.07  15517.67  61.73
841.7  25214.76  15603.05  61.88
842.9  25311.78  15692.96  62.00
844.0  25352.29  15761.93  62.17
845.2  25454.19  15850.31  62.27
846.4  25527.43  15928.75  62.40
847.5  25656.16  16036.24  62.50
848.7  25745.00  16140.20  62.69
849.9  25879.71  16240.14  62.75
851.0  25913.04  16296.40  62.89
852.2  25966.07  16362.42  63.01
853.3  25941.98  16395.36  63.20
854.5  25934.86  16436.89  63.38
855.6  25916.94  16460.69  63.51
856.8  25944.85  16502.84  63.61
857.9  25943.54  16525.45  63.70
859.1  25996.60  16602.77  63.87
860.2  26027.46  16639.91  63.93
861.4  26023.97  16684.55  64.11
862.5  26059.24  16724.92  64.18
863.7  26115.12  16777.31  64.24
864.8  26101.25  16812.53  64.41
865.9  26082.46  16814.77  64.47
867.1  26099.25  16855.35  64.58
868.2  26099.69  16878.82  64.67
869.3  26128.19  16909.89  64.72
870.5  26099.47  16906.13  64.78
871.6  26087.08  16941.91  64.94
872.7  26136.21  16998.79  65.04
873.9  26148.82  17027.76  65.12
875.0  26142.73  17028.37  65.14
876.1  26142.29  17050.25  65.22
877.2  26184.05  17072.24  65.20
878.3  26169.01  17079.62  65.27
879.4  26191.11  17100.87  65.29
880.5  26214.48  17128.56  65.34
881.7  26220.35  17129.28  65.33
882.8  26271.44  17160.51  65.32
883.9  26272.50  17207.91  65.50
885.0  26275.91  17197.27  65.45
886.1  26278.81  17213.20  65.50
887.2  26194.66  17176.34  65.57
888.3  26154.69  17142.10  65.54
889.4  26083.75  17110.25  65.60
890.5  26060.47  17089.69  65.58
891.6  26043.45  17063.95  65.52
892.7  26025.13  17066.00  65.58
893.8  26046.70  17082.22  65.58
894.9  26070.72  17086.49  65.54
896.0  26059.51  17071.37  65.51
897.0  26054.12  17089.98  65.59
898.1  26079.30  17089.00  65.53
899.2  26095.96  17094.69  65.51
900.3  26052.56  17055.99  65.47
901.4  26029.33  17014.75  65.37
902.4  26018.83  17035.27  65.47
903.5  26017.27  17006.38  65.37
904.6  26012.16  16994.55  65.33
905.7  26050.43  17002.98  65.27
906.7  26024.14  16985.86  65.27
907.8  26076.86  16997.18  65.18
908.9  26057.48  16965.46  65.11
909.9  26017.06  16921.67  65.04
911.0  26009.49  16892.44  64.95
912.1  25979.15  16843.42  64.83
913.1  25944.88  16794.02  64.73
914.2  25856.17  16716.59  64.65
915.2  25844.13  16687.96  64.57
916.3  25883.78  16658.88  64.36
917.3  25847.25  16628.04  64.33
918.4  25819.06  16547.94  64.09
919.4  25792.96  16500.53  63.97
920.5  25804.34  16447.43  63.74
921.5  25824.68  16395.96  63.49
922.6  25820.42  16319.05  63.20
923.6  25802.74  16275.93  63.08
924.7  25837.63  16221.03  62.78
925.7  25830.51  16135.79  62.47
926.7  25889.20  16077.63  62.10
927.8  25949.67  16004.61  61.68
928.8  26061.51  15979.32  61.31
929.9  26114.55  15947.59  61.07
930.9  26214.58  15920.56  60.73
931.9  26363.30  15901.01  60.31
932.9  26568.63  15924.12  59.94
934.0  26604.58  15839.72  59.54
935.0  26610.78  15737.49  59.14
936.0  26639.41  15631.45  58.68
937.0  26632.91  15507.12  58.23
938.1  26589.57  15386.75  57.87
939.1  26594.73  15277.45  57.45
940.1  26647.30  15183.90  56.98
941.1  26757.94  15143.56  56.59
942.1  26950.86  15126.14  56.12
943.1  27064.46  15052.43  55.62
944.1  27200.04  14985.85  55.09
945.2  27250.86  14887.94  54.63
946.2  27341.46  14780.88  54.06
947.2  27385.31  14655.43  53.52
948.2  27528.14  14562.92  52.90
949.2  27562.84  14437.74  52.38
950.2  27601.23  14292.60  51.78
951.2  27696.06  14179.09  51.20
952.2  27776.58  14052.94  50.59
953.2  27874.44  13943.63  50.02
954.2  27994.28  13831.82  49.41
955.2  28013.52  13687.99  48.86
956.2  27975.49  13569.75  48.51
957.2  28074.45  13484.04  48.03
958.2  28163.05  13408.03  47.61
959.2  28188.45  13329.99  47.29
960.1  28244.69  13268.79  46.98
961.1  28322.00  13241.31  46.75
962.1  28304.06  13168.19  46.52
963.1  28357.97  13147.98  46.36
964.1  28464.51  13137.75  46.15
965.1  28543.56  13146.40  46.06
966.1  28584.14  13103.19  45.84
967.0  28655.80  13125.22  45.80
968.0  28697.14  13076.72  45.57
969.0  28718.80  13081.11  45.55
970.0  28760.47  13072.81  45.45
971.0  28834.42  13078.59  45.36
971.9  28848.78  13077.80  45.33
972.9  28890.31  13069.08  45.24
973.9  28948.56  13060.02  45.11
974.9  29046.70  13058.67  44.96
975.8  29063.68  13065.41  44.95
976.8  29052.58  13066.91  44.98
977.8  29165.54  13108.30  44.94
978.8  29197.88  13077.47  44.79
979.7  29189.32  13108.30  44.91
981.4  29653.05  13614.90  45.91
985.3  29580.67  13688.93  46.28
989.3  29694.74  13821.43  46.55
993.3  29811.28  13983.22  46.91
997.2  29873.76  14138.78  47.33
1001.2  29847.48  14340.39  48.05
1005.2  29766.32  14566.22  48.94
1009.1  29802.16  14834.91  49.78
1013.1  29912.80  15154.70  50.66
1017.1  29980.27  15479.59  51.63
1021.0  29997.45  15751.93  52.51
1025.0  29986.05  16036.92  53.48
1029.0  29874.56  16273.88  54.47
1032.9  29757.39  16508.79  55.48
1036.9  29719.10  16786.90  56.49
1040.9  29786.91  17087.78  57.37
1044.8  29914.06  17405.75  58.19
1048.8  30017.23  17704.49  58.98
1052.7  30081.05  17952.81  59.68
1056.7  30106.96  18117.60  60.18
1060.7  30124.55  18257.45  60.61
1064.6  30126.20  18363.21  60.95
1068.6  30068.46  18383.00  61.14
1072.5  30024.99  18368.76  61.18
1076.5  29992.38  18337.97  61.14
1080.4  29983.51  18267.26  60.92
1084.4  30049.89  18194.48  60.55
1088.3  30134.74  18101.32  60.07
1092.3  30115.74  17921.16  59.51
1096.2  30104.84  17713.38  58.84
1100.2  30142.18  17522.95  58.13
1104.1  30082.71  17263.04  57.39
1108.1  30052.27  17015.47  56.62
1112.0  29977.43  16738.23  55.84
1116.0  29868.35  16397.92  54.90
1119.9  29779.89  16012.71  53.77
1123.9  29822.35  15617.00  52.37
1127.8  29798.40  15038.72  50.47
1131.8  29786.58  14283.69  47.95
1135.7  29821.64  13418.60  45.00
1139.6  29831.38  12476.18  41.82
1143.6  29819.95  11585.35  38.85
1147.5  29803.64  10835.08  36.35
1151.4  29713.98  10221.33  34.40
1155.4  29731.43  9821.15  33.03
1159.3  29760.66  9574.80  32.17
1163.2  29674.15  9365.44  31.56
1167.2  29672.28  9237.04  31.13
1171.1  29681.80  9155.33  30.84
1175.0  29651.52  9074.39  30.60
1179.0  29638.87  9007.25  30.39
1182.9  29697.98  8960.35  30.17
1186.8  29706.14  8898.37  29.95
1190.7  29571.10  8806.93  29.78
1194.7  29411.94  8718.00  29.64
1198.6  29289.65  8669.43  29.60
1202.5  29196.66  8649.97  29.63
1206.4  29112.98  8643.13  29.69
1210.3  29056.59  8650.55  29.77
1214.2  29008.58  8675.97  29.91
1218.2  28915.95  8703.23  30.10
1222.1  28833.10  8739.89  30.31
1226.0  28785.60  8786.55  30.52
1229.9  28734.48  8831.92  30.74
1233.8  28673.70  8877.43  30.96
1237.7  28644.25  8925.74  31.16
1241.6  28596.57  8955.93  31.32
1245.5  28494.07  8964.31  31.46
1249.4  28422.55  8978.02  31.59
1253.3  28356.92  8999.04  31.73
1257.2  28323.43  9011.47  31.82
1261.1  28264.79  8999.75  31.84
1265.0  28184.91  8974.91  31.84
1268.9  28067.43  8914.94  31.76
1272.8  28106.70  8886.30  31.62
1276.7  28238.01  8871.93  31.42
1280.6  28297.17  8814.51  31.15
1284.5  28250.81  8708.89  30.83
1288.4  28234.52  8598.23  30.45
1292.3  28165.50  8441.58  29.97
1296.2  28076.33  8255.08  29.40
1300.1  27971.71  8042.03  28.75
1303.9  27830.79  7802.14  28.03
1307.8  27679.51  7550.70  27.28
1311.7  27513.83  7271.21  26.43
1315.6  27356.90  6990.95  25.55
1319.5  27190.78  6695.05  24.62
1323.3  27036.43  6392.38  23.64
1327.2  26898.46  6104.28  22.69
1331.1  26745.75  5819.43  21.76
1335.0  26551.82  5540.74  20.87
1338.8  26417.20  5294.52  20.04
1342.7  26306.22  5075.74  19.29
1346.5  26068.84  4840.73  18.57
1350.4  25867.11  4632.43  17.91
1354.3  25587.95  4436.05  17.34
1358.1  25293.52  4242.67  16.77
1362.0  25095.25  4074.25  16.24
1365.8  25024.00  3918.83  15.66
1369.7  25106.98  3765.25  15.00
1373.5  25078.13  3565.03  14.22
1377.4  24917.97  3311.31  13.29
1381.2  24782.40  3039.96  12.27
1385.1  24754.66  2786.60  11.26
1389.0  24692.16  2537.10  10.27
1392.8  24567.88  2302.87  9.37
1396.6  24460.52  2106.72  8.61
1400.5  24320.99  1945.84  8.00
1404.3  24225.89  1817.59  7.50
1408.2  24204.64  1721.94  7.11
1412.0  24174.50  1650.13  6.83
1415.8  24201.79  1596.90  6.60
1419.6  24176.54  1549.60  6.41
1423.5  24162.30  1518.19  6.28
1427.3  24156.22  1494.76  6.19
1431.1  24149.78  1474.05  6.10
1434.9  24082.82  1454.01  6.04
1438.8  24045.91  1445.34  6.01
1442.6  24021.66  1434.04  5.97
1446.4  23948.95  1422.19  5.94
1450.2  23899.20  1415.57  5.92
1454.0  23823.72  1409.04  5.91
1457.8  23805.13  1408.50  5.92
1461.6  23794.65  1410.98  5.93
1465.4  23719.51  1412.50  5.96
1469.2  23598.58  1412.02  5.98
1473.0  23505.47  1420.09  6.04
1476.8  23479.35  1438.18  6.13
1480.7  23444.07  1457.80  6.22
1484.4  23358.60  1475.16  6.32
1488.2  23294.76  1503.28  6.45
1492.0  23212.99  1535.71  6.62
1495.8  23134.48  1559.89  6.74
1499.6  23068.04  1575.55  6.83
1503.4  22989.82  1577.96  6.86
1507.2  22924.40  1563.98  6.82
1510.9  22832.54  1564.34  6.85
