/*** Spectra Vista SIG Data ***/
name= S3.sig
comm= Averaged Ref/Tar of files: GD3S7,GD3S8,GD3S9
data=
346.4  598.78  152.13  25.41
347.9  627.50  156.15  24.88
349.5  677.04  160.16  23.66
351.1  739.44  155.90  21.08
352.6  790.63  163.08  20.63
354.2  841.03  171.26  20.36
355.7  912.59  180.05  19.73
357.3  974.37  186.44  19.13
358.8  992.58  188.38  18.98
360.4  1062.29  197.92  18.63
361.9  1117.88  198.74  17.78
363.5  1149.55  201.75  17.55
365.1  1196.29  201.12  16.81
366.6  1260.16  206.35  16.37
368.2  1349.72  201.67  14.94
369.7  1403.95  205.70  14.65
371.3  1488.21  214.45  14.41
372.8  1577.00  222.22  14.09
374.4  1638.71  225.39  13.75
375.9  1688.10  227.73  13.49
377.4  1740.09  230.06  13.22
379.0  1788.57  230.52  12.89
380.5  1855.73  236.15  12.73
382.1  1905.98  233.25  12.24
383.6  1973.16  236.63  11.99
385.2  2065.25  239.98  11.62
386.7  2149.76  244.31  11.36
388.3  2271.83  257.35  11.33
389.8  2363.45  268.10  11.34
391.3  2453.59  280.17  11.42
392.9  2526.36  289.34  11.45
394.4  2602.50  307.93  11.83
395.9  2690.98  321.43  11.94
397.5  2829.48  336.89  11.91
399.0  2963.31  338.87  11.44
400.6  3033.76  339.88  11.20
402.1  3072.78  341.85  11.13
403.6  3116.75  337.25  10.82
405.1  3199.00  348.46  10.89
406.7  3304.00  356.16  10.78
408.2  3412.53  369.91  10.84
409.7  3521.28  378.19  10.74
411.3  3642.17  395.51  10.86
412.8  3732.75  410.33  10.99
414.3  3845.02  428.07  11.13
415.8  3965.00  448.25  11.31
417.4  4085.95  458.27  11.22
418.9  4192.21  474.71  11.32
420.4  4267.16  479.39  11.23
421.9  4346.32  489.89  11.27
423.5  4413.15  496.50  11.25
425.0  4492.75  502.24  11.18
426.5  4594.55  503.67  10.96
428.0  4712.54  516.41  10.96
429.5  4856.53  525.48  10.82
431.1  5025.20  542.83  10.80
432.6  5198.44  563.17  10.83
434.1  5370.75  577.82  10.76
435.6  5520.56  591.66  10.72
437.1  5670.60  612.11  10.79
438.6  5806.58  630.50  10.86
440.1  5943.54  647.88  10.90
441.6  6091.61  668.97  10.98
443.1  6230.93  691.54  11.10
444.7  6356.12  717.95  11.30
446.2  6474.98  744.54  11.50
447.7  6582.53  770.37  11.70
449.2  6691.68  791.14  11.82
450.7  6814.08  809.68  11.88
452.2  6930.56  832.90  12.02
453.7  7066.33  860.60  12.18
455.2  7233.85  892.41  12.34
456.7  7443.04  927.23  12.46
458.2  7673.27  963.16  12.55
459.7  7920.50  1003.80  12.67
461.2  8156.07  1039.53  12.75
462.7  8366.46  1075.85  12.86
464.2  8568.06  1106.54  12.91
465.7  8788.58  1138.89  12.96
467.2  8970.50  1166.74  13.01
468.7  9176.00  1204.47  13.13
470.2  9305.26  1243.14  13.36
471.7  9490.50  1275.69  13.44
473.2  9788.42  1289.88  13.18
474.6  10042.30  1306.26  13.01
476.1  10127.24  1327.12  13.10
477.6  10169.21  1351.20  13.29
479.1  10224.56  1370.12  13.40
480.6  10293.47  1385.92  13.46
482.1  10426.95  1409.47  13.52
483.6  10590.11  1439.38  13.59
485.1  10796.39  1475.42  13.67
486.6  11041.55  1520.48  13.77
488.0  11290.50  1575.22  13.95
489.5  11568.25  1637.72  14.16
491.0  11840.59  1699.85  14.36
492.5  12119.22  1774.98  14.65
494.0  12409.65  1856.76  14.96
495.4  12660.45  1941.45  15.33
496.9  12912.44  2035.17  15.76
498.4  13155.80  2134.69  16.23
499.9  13408.52  2243.91  16.73
501.4  13645.90  2360.23  17.30
502.8  13864.50  2482.09  17.90
504.3  14081.40  2616.12  18.58
505.8  14291.05  2756.24  19.29
507.2  14436.37  2890.84  20.02
508.7  14548.87  3029.32  20.82
510.2  14651.50  3170.13  21.64
511.6  14718.08  3303.78  22.45
513.1  14838.45  3448.15  23.24
514.6  14986.45  3610.18  24.09
516.0  15112.04  3760.54  24.88
517.5  15305.31  3937.60  25.73
519.0  15537.89  4128.91  26.57
520.5  15768.60  4319.32  27.39
521.9  16045.99  4526.40  28.21
523.4  16363.11  4740.45  28.97
524.8  16675.79  4955.03  29.71
526.3  17027.53  5172.34  30.38
527.8  17380.80  5388.16  31.00
529.2  17706.86  5591.45  31.58
530.7  18056.71  5793.75  32.09
532.1  18377.28  5981.51  32.55
533.6  18738.23  6176.92  32.96
535.0  19114.67  6371.21  33.33
536.5  19476.07  6564.55  33.71
538.0  19846.24  6758.20  34.05
539.4  20198.95  6940.13  34.36
540.9  20626.19  7129.75  34.57
542.3  20984.92  7289.24  34.74
543.8  21250.33  7424.26  34.94
545.2  21329.19  7510.10  35.21
546.6  21331.64  7572.12  35.50
548.1  21362.06  7629.91  35.72
549.5  21376.46  7680.87  35.93
551.0  21386.66  7722.30  36.11
552.4  21443.54  7773.69  36.25
553.9  21463.89  7808.70  36.38
555.3  21521.57  7847.48  36.46
556.8  21650.10  7903.58  36.51
558.2  21773.81  7952.57  36.52
559.6  21936.94  8011.04  36.52
561.1  22168.25  8091.63  36.50
562.5  22423.78  8171.42  36.44
564.0  22757.43  8275.08  36.36
565.4  23059.14  8361.56  36.26
566.8  23449.52  8465.54  36.10
568.3  23818.66  8554.98  35.92
569.7  24198.01  8642.62  35.72
571.1  24579.14  8717.08  35.47
572.6  24952.86  8785.64  35.21
574.0  25317.60  8854.23  34.97
575.4  25678.69  8914.78  34.72
576.9  26008.29  8972.44  34.50
578.3  26306.64  9013.95  34.26
579.7  26593.28  9064.40  34.09
581.1  26823.10  9093.64  33.90
582.6  27065.10  9136.31  33.76
584.0  27286.52  9160.03  33.57
585.4  27587.92  9212.75  33.39
586.8  27978.96  9288.79  33.20
588.3  28419.30  9370.53  32.97
589.7  28786.68  9445.02  32.81
591.1  29016.81  9485.13  32.69
592.5  29127.43  9493.98  32.59
594.0  29186.34  9486.43  32.50
595.4  29194.56  9464.03  32.42
596.8  29193.45  9434.28  32.32
598.2  29177.08  9400.12  32.22
599.6  29153.88  9362.27  32.11
601.0  29216.28  9335.01  31.95
602.4  29261.60  9300.74  31.78
603.9  29364.60  9277.50  31.59
605.3  29484.10  9257.84  31.40
606.7  29584.80  9221.28  31.17
608.1  29785.49  9213.24  30.93
609.5  30013.28  9205.43  30.67
610.9  30296.78  9208.49  30.39
612.3  30557.28  9200.60  30.11
613.7  30914.00  9218.38  29.82
615.1  31159.08  9195.12  29.51
616.5  31406.64  9177.39  29.22
617.9  31801.61  9220.68  28.99
619.3  32170.62  9269.25  28.81
620.7  32635.92  9354.13  28.66
622.1  33083.75  9398.28  28.41
623.5  33564.04  9432.21  28.10
624.9  34116.86  9476.42  27.78
626.3  34490.69  9457.79  27.42
627.7  34145.81  9247.95  27.08
629.1  33851.16  9060.96  26.77
630.5  33743.57  8945.44  26.51
631.9  33775.53  8918.45  26.41
633.3  33808.52  8979.07  26.56
634.7  33992.91  9105.84  26.79
636.1  34075.08  9198.27  26.99
637.5  34196.58  9282.96  27.15
638.9  34374.61  9359.21  27.23
640.2  34545.58  9392.14  27.19
641.6  34634.34  9373.57  27.06
643.0  34657.83  9303.80  26.84
644.4  34696.37  9217.16  26.57
645.8  34653.86  9071.70  26.18
647.2  34834.41  8960.91  25.72
648.5  34958.93  8830.02  25.26
649.9  34861.32  8648.66  24.81
651.3  34789.65  8496.01  24.42
652.7  34680.00  8340.71  24.05
654.1  34452.30  8071.91  23.43
655.5  34172.42  7776.81  22.76
656.8  33904.63  7488.21  22.09
658.2  34070.04  7306.98  21.45
659.6  34442.82  7163.89  20.80
660.9  34748.70  7008.94  20.17
662.3  35067.95  6853.98  19.54
663.7  35364.00  6696.20  18.94
665.0  35617.00  6550.50  18.39
666.4  35877.31  6412.86  17.87
667.8  36209.10  6315.63  17.44
669.1  36482.80  6227.43  17.07
670.5  36799.72  6171.28  16.77
671.9  36995.40  6112.04  16.52
673.2  37270.13  6098.26  16.36
674.6  37530.47  6106.02  16.27
676.0  37841.78  6150.00  16.25
677.3  38141.57  6220.40  16.31
678.7  38483.75  6335.55  16.46
680.0  38922.37  6523.29  16.76
681.4  39389.45  6781.93  17.22
682.8  39844.35  7123.86  17.88
684.1  40287.78  7557.34  18.76
685.5  40705.56  8090.18  19.87
686.8  41091.84  8723.32  21.23
688.2  41433.89  9440.76  22.79
689.5  41549.57  10203.35  24.56
690.9  41633.44  11028.09  26.49
692.2  41697.60  11906.46  28.55
693.6  41771.65  12831.40  30.72
694.9  41721.88  13730.73  32.91
696.2  41751.90  14652.76  35.09
697.6  41766.04  15548.21  37.23
698.9  41796.48  16424.94  39.30
700.3  41844.24  17270.99  41.27
701.6  41918.48  18074.41  43.12
703.0  41979.40  18834.94  44.87
704.3  41981.71  19516.69  46.49
705.6  41967.18  20149.85  48.01
707.0  41980.75  20753.70  49.44
708.3  41872.71  21246.75  50.74
709.6  41753.67  21705.73  51.99
711.0  41589.99  22075.08  53.08
712.3  41418.66  22422.27  54.14
713.6  41354.04  22796.86  55.13
714.9  41240.96  23122.41  56.07
716.3  41218.54  23458.55  56.91
717.6  41221.95  23795.46  57.73
718.9  41134.56  24050.28  58.47
720.2  40936.00  24205.92  59.13
721.6  40765.66  24380.16  59.81
722.9  40572.15  24529.65  60.46
724.2  40305.71  24608.14  61.05
725.5  40134.57  24716.62  61.58
726.8  39960.91  24784.56  62.02
728.1  39855.98  24900.73  62.48
729.5  39766.23  24998.83  62.86
730.8  39707.44  25105.52  63.23
732.1  39612.07  25171.56  63.55
733.4  39556.45  25252.74  63.84
734.7  39507.57  25308.13  64.06
736.0  39511.29  25409.71  64.31
737.3  39463.58  25479.68  64.57
738.6  39569.04  25646.83  64.82
739.9  39770.92  25887.49  65.09
741.2  39928.98  26065.31  65.28
742.5  40206.42  26349.84  65.54
743.8  40696.43  26766.36  65.77
745.1  41398.16  27329.89  66.02
746.4  42245.84  27932.24  66.12
747.7  43136.62  28526.31  66.13
749.0  43980.49  29077.02  66.11
750.3  44484.44  29356.64  65.99
751.6  44396.66  29301.49  66.00
752.9  43969.12  29052.52  66.07
754.2  43470.53  28787.01  66.22
755.4  42928.75  28514.04  66.42
756.7  42746.48  28497.75  66.67
758.0  42774.71  28611.35  66.89
759.3  43048.01  28872.30  67.07
760.6  43418.76  29205.69  67.27
761.9  43775.94  29510.36  67.41
763.1  43996.61  29683.97  67.47
764.4  44239.34  29909.54  67.61
765.7  44424.25  30078.53  67.71
767.0  44583.75  30212.48  67.77
768.2  44688.00  30339.68  67.89
769.5  44782.92  30423.27  67.93
770.8  44990.42  30584.71  67.98
772.0  45014.41  30631.64  68.05
773.3  45100.97  30722.91  68.12
774.6  45226.84  30840.55  68.19
775.8  45313.45  30928.81  68.26
777.1  45344.81  30973.65  68.31
778.4  45245.88  30947.86  68.40
779.6  45226.44  30974.04  68.49
780.9  45132.00  30952.13  68.58
782.1  44952.26  30870.37  68.67
783.4  44936.32  30890.77  68.74
784.6  44935.72  30940.69  68.86
785.9  45255.62  31226.10  69.00
787.1  45836.93  31688.38  69.13
788.4  46288.94  31967.65  69.06
789.6  46219.23  31801.97  68.81
790.9  45788.99  31427.35  68.64
792.1  45296.16  31103.01  68.67
793.4  44771.54  30787.02  68.76
794.6  44415.30  30569.78  68.83
795.8  44134.47  30390.61  68.86
797.1  43801.05  30210.25  68.97
798.3  43569.08  30107.37  69.10
799.5  43411.48  30047.79  69.22
800.8  43273.13  29958.86  69.23
802.0  43071.08  29864.09  69.34
803.2  42890.28  29733.92  69.33
804.5  42742.15  29658.10  69.39
805.7  42601.95  29556.50  69.38
806.9  42426.40  29464.24  69.45
808.1  42305.67  29410.12  69.52
809.4  42221.44  29375.32  69.57
810.6  42105.70  29339.92  69.68
811.8  42062.43  29343.87  69.76
813.0  42071.08  29375.58  69.82
814.2  42081.20  29416.50  69.90
815.4  42185.03  29488.75  69.90
816.6  42225.34  29499.94  69.86
817.9  42273.21  29508.05  69.80
819.1  42166.58  29415.01  69.76
820.3  42039.03  29285.37  69.66
821.5  41905.07  29192.89  69.66
822.7  41849.58  29131.20  69.61
823.9  41838.35  29123.12  69.61
825.1  41851.34  29094.91  69.52
826.3  41890.94  29089.41  69.44
827.5  41937.05  29090.21  69.37
828.7  42011.28  29083.38  69.23
829.9  42039.57  29081.40  69.18
831.0  42140.75  29118.21  69.10
832.2  42235.78  29162.27  69.05
833.4  42305.18  29189.78  69.00
834.6  42417.19  29261.57  68.99
835.8  42496.65  29319.89  68.99
837.0  42597.61  29408.64  69.04
838.1  42745.68  29525.97  69.07
839.3  42856.00  29599.70  69.07
840.5  42989.60  29695.20  69.08
841.7  43156.80  29836.97  69.14
842.9  43298.86  29978.65  69.24
844.0  43430.88  30070.83  69.24
845.2  43568.90  30195.92  69.31
846.4  43732.15  30302.51  69.29
847.5  43960.00  30477.28  69.33
848.7  44164.79  30618.93  69.33
849.9  44393.85  30743.70  69.25
851.0  44478.08  30754.83  69.15
852.2  44569.63  30826.89  69.17
853.3  44562.81  30799.19  69.11
854.5  44594.90  30805.09  69.08
855.6  44615.97  30824.76  69.09
856.8  44687.86  30864.99  69.07
857.9  44681.40  30882.86  69.12
859.1  44832.20  30998.76  69.14
860.2  44876.88  31025.50  69.13
861.4  44954.55  31087.41  69.15
862.5  45021.69  31144.95  69.18
863.7  45150.84  31213.38  69.13
864.8  45213.35  31244.36  69.10
865.9  45167.77  31219.33  69.12
867.1  45241.43  31255.87  69.09
868.2  45295.54  31275.82  69.05
869.3  45314.27  31269.40  69.01
870.5  45282.48  31242.60  68.99
871.6  45315.83  31256.84  68.98
872.7  45413.27  31320.72  68.97
873.9  45478.16  31343.69  68.92
875.0  45456.71  31310.83  68.88
876.1  45452.45  31306.30  68.88
877.2  45498.99  31324.78  68.85
878.3  45519.98  31283.33  68.72
879.4  45563.53  31268.07  68.63
880.5  45631.08  31287.64  68.57
881.7  45596.20  31228.38  68.49
882.8  45693.96  31221.05  68.33
883.9  45722.91  31217.86  68.28
885.0  45675.63  31124.14  68.14
886.1  45712.78  31062.74  67.95
887.2  45537.58  30908.86  67.88
888.3  45475.07  30811.00  67.75
889.4  45347.40  30670.98  67.64
890.5  45259.13  30597.79  67.61
891.6  45193.70  30495.45  67.48
892.7  45201.31  30461.43  67.39
893.8  45270.56  30483.20  67.34
894.9  45248.28  30440.34  67.27
896.0  45235.90  30391.90  67.19
897.0  45257.72  30367.85  67.10
898.1  45230.13  30350.32  67.10
899.2  45252.30  30322.93  67.01
900.3  45165.90  30207.63  66.88
901.4  45101.16  30090.07  66.72
902.4  45077.20  30087.77  66.75
903.5  45018.01  29991.09  66.62
904.6  45035.56  29929.18  66.46
905.7  45038.93  29914.33  66.42
906.7  44985.82  29863.68  66.38
907.8  45025.57  29868.86  66.34
908.9  44904.57  29758.88  66.27
909.9  44897.74  29706.64  66.17
911.0  44830.08  29589.56  66.00
912.1  44749.25  29479.43  65.88
913.1  44707.00  29375.87  65.71
914.2  44554.62  29223.25  65.59
915.2  44505.45  29157.48  65.51
916.3  44491.35  29078.67  65.36
917.3  44461.10  29008.32  65.24
918.4  44383.35  28874.62  65.06
919.4  44330.69  28733.30  64.82
920.5  44315.70  28658.52  64.67
921.5  44285.78  28586.54  64.55
922.6  44268.10  28447.93  64.26
923.6  44262.16  28396.67  64.16
924.7  44333.00  28295.08  63.82
925.7  44276.22  28174.82  63.63
926.7  44252.98  28103.68  63.51
927.8  44374.33  28007.32  63.12
928.8  44502.63  27962.32  62.83
929.9  44598.23  27910.16  62.58
930.9  44802.27  27920.74  62.32
931.9  45011.35  27926.72  62.04
932.9  45355.12  28039.37  61.82
934.0  45370.16  27931.40  61.56
935.0  45397.97  27825.16  61.29
936.0  45413.73  27705.46  61.01
937.0  45319.95  27528.60  60.74
938.1  45295.44  27372.77  60.43
939.1  45257.91  27229.25  60.16
940.1  45342.90  27138.97  59.85
941.1  45568.46  27153.67  59.59
942.1  45803.34  27178.31  59.34
943.1  45999.43  27129.14  58.98
944.1  46171.28  27130.61  58.76
945.2  46338.18  27021.71  58.31
946.2  46411.22  26928.97  58.02
947.2  46518.25  26827.58  57.67
948.2  46693.82  26763.05  57.32
949.2  46838.19  26640.17  56.88
950.2  46912.95  26505.33  56.50
951.2  46909.80  26378.97  56.23
952.2  47054.57  26270.08  55.83
953.2  47260.85  26205.92  55.45
954.2  47365.65  26126.48  55.16
955.2  47408.68  25985.16  54.81
956.2  47434.65  25843.80  54.48
957.2  47543.77  25754.21  54.17
958.2  47601.59  25700.08  53.99
959.2  47735.55  25643.78  53.72
960.1  47775.14  25594.67  53.57
961.1  47870.63  25600.05  53.48
962.1  47933.44  25529.47  53.26
963.1  48032.50  25543.15  53.18
964.1  48057.21  25562.65  53.19
965.1  48243.99  25615.03  53.09
966.1  48335.33  25569.66  52.90
967.0  48410.39  25599.72  52.88
968.0  48434.88  25635.15  52.93
969.0  48556.60  25664.31  52.85
970.0  48603.65  25680.62  52.84
971.0  48737.12  25729.58  52.79
971.9  48722.90  25670.65  52.69
972.9  48879.95  25709.51  52.60
973.9  48859.53  25738.33  52.68
974.9  49044.08  25712.46  52.43
975.8  49101.73  25672.92  52.29
976.8  49135.91  25656.86  52.22
977.8  49315.41  25699.45  52.11
978.8  49372.50  25806.50  52.27
979.7  49504.50  25836.46  52.19
980.7  49626.72  25865.81  52.12
981.7  49868.69  25985.05  52.11
982.6  50026.42  26170.25  52.31
983.6  50542.44  26452.15  52.34
984.6  51139.74  26690.88  52.19
985.5  51570.00  27004.34  52.36
986.5  52881.11  27555.09  52.11
987.5  53801.49  28012.82  52.07
988.4  54737.10  28613.38  52.27
989.4  56052.04  29220.30  52.13
990.4  57074.27  30064.96  52.68
991.3  59136.61  30670.37  51.86
992.3  61232.97  31405.54  51.29
993.2  62381.81  32312.88  51.80
994.2  63759.15  32545.84  51.04
995.2  64627.45  32724.06  50.63
996.1  65405.36  33762.21  51.62
997.1  65143.00  33982.93  52.17
998.0  67149.60  33015.22  49.17
999.0  66846.51  33350.99  49.89
1000.0  67127.69  33376.34  49.72
1000.9  65712.83  34391.03  52.34
1001.9  66491.34  33407.85  50.24
1002.8  64393.95  32712.68  50.80
1003.8  65025.46  32992.79  50.74
1004.8  66172.20  33420.76  50.51
961.5  59748.86  27940.81  46.76
965.5  58598.35  27522.18  46.97
969.5  56260.49  26701.72  47.46
973.4  53913.29  25919.85  48.08
977.4  51859.95  25162.12  48.52
981.4  50850.20  24927.69  49.02
985.3  50481.20  25017.70  49.56
989.3  50535.22  25315.22  50.09
993.3  50635.09  25688.96  50.73
997.2  50595.02  25949.17  51.29
1001.2  50545.04  26163.63  51.76
1005.2  50473.33  26350.38  52.21
1009.1  50535.74  26644.85  52.72
1013.1  50697.93  27024.48  53.30
1017.1  50843.90  27396.16  53.88
1021.0  50855.49  27696.71  54.46
1025.0  50816.26  27964.25  55.03
1029.0  50641.08  28139.95  55.57
1032.9  50496.42  28316.51  56.08
1036.9  50486.34  28584.85  56.62
1040.9  50614.23  28926.56  57.15
1044.8  50848.91  29303.13  57.63
1048.8  51055.33  29650.47  58.08
1052.7  51200.97  29946.01  58.49
1056.7  51265.76  30143.32  58.80
1060.7  51328.86  30293.21  59.02
1064.6  51364.29  30405.06  59.19
1068.6  51285.22  30405.23  59.29
1072.5  51205.93  30353.38  59.28
1076.5  51155.97  30303.25  59.24
1080.4  51154.95  30238.74  59.11
1084.4  51258.31  30186.30  58.89
1088.3  51367.47  30106.69  58.61
1092.3  51376.13  29931.78  58.26
1096.2  51342.58  29717.86  57.88
1100.2  51360.86  29516.12  57.47
1104.1  51244.60  29242.08  57.06
1108.1  51175.76  28989.23  56.65
1112.0  51059.75  28682.48  56.17
1116.0  50831.30  28278.38  55.63
1119.9  50653.13  27825.79  54.93
1123.9  50703.41  27426.67  54.09
1127.8  50649.60  26837.76  52.99
1131.8  50608.23  26066.75  51.51
1135.7  50617.81  25166.52  49.72
1139.6  50606.06  24168.89  47.76
1143.6  50555.26  23195.81  45.88
1147.5  50517.05  22367.09  44.28
1151.4  50365.69  21664.82  43.02
1155.4  50355.11  21224.50  42.15
1159.3  50376.78  20947.00  41.58
1163.2  50207.59  20692.42  41.21
1167.2  50161.80  20565.04  41.00
1171.1  50174.37  20482.05  40.82
1175.0  50101.08  20377.66  40.67
1179.0  50065.70  20286.84  40.52
1182.9  50165.17  20248.99  40.36
1186.8  50159.61  20175.83  40.22
1190.7  49934.95  20007.63  40.07
1194.7  49665.47  19847.87  39.96
1198.6  49438.62  19757.43  39.96
1202.5  49264.40  19701.62  39.99
1206.4  49122.14  19673.38  40.05
1210.3  49037.26  19677.00  40.13
1214.2  48930.30  19692.70  40.25
1218.2  48765.56  19714.56  40.43
1222.1  48630.48  19763.54  40.64
1226.0  48538.40  19822.69  40.84
1229.9  48450.48  19869.70  41.01
1233.8  48352.03  19917.34  41.19
1237.7  48317.50  19980.82  41.35
1241.6  48229.08  20023.80  41.52
1245.5  48061.09  20028.23  41.67
1249.4  47934.98  20030.56  41.79
1253.3  47803.87  20027.89  41.90
1257.2  47735.46  20031.04  41.96
1261.1  47624.11  20007.65  42.01
1265.0  47490.52  19969.02  42.05
1268.9  47304.07  19876.43  42.02
1272.8  47372.70  19873.05  41.95
1276.7  47590.81  19899.23  41.81
1280.6  47691.16  19852.45  41.63
1284.5  47615.01  19711.21  41.40
1288.4  47591.67  19562.10  41.10
1292.3  47467.75  19350.83  40.77
1296.2  47318.59  19105.66  40.38
1300.1  47148.87  18819.20  39.91
1303.9  46897.39  18475.45  39.40
1307.8  46639.44  18101.12  38.81
1311.7  46386.67  17694.80  38.15
1315.6  46123.85  17279.22  37.46
1319.5  45848.18  16829.24  36.71
1323.3  45606.50  16368.46  35.89
1327.2  45386.16  15913.93  35.06
1331.1  45132.53  15449.42  34.23
1335.0  44824.46  14971.78  33.40
1338.8  44600.56  14546.69  32.62
1342.7  44421.07  14165.33  31.89
1346.5  44042.02  13746.03  31.21
1350.4  43720.62  13386.43  30.62
