/*** Spectra Vista SIG Data ***/
name= S3.sig
comm= Resampled spectral data SIG file reprocesed for matching/overlap;Averaged Ref/Tar of files: GD3S7,GD3S8,GD3S9
data=
346.0  598.78  152.13  25.41
356.0  924.17  181.25  19.61
366.0  1234.61  204.26  16.54
376.0  1691.57  227.89  13.47
386.0  2110.32  242.29  11.48
396.0  2699.64  322.40  11.94
406.0  3258.06  352.79  10.83
416.0  3980.12  449.50  11.29
426.0  4560.62  503.19  11.03
436.0  5560.57  597.11  10.74
446.0  6459.13  740.99  11.47
456.0  7345.42  910.98  12.40
466.0  8824.96  1144.46  12.97
476.0  10121.58  1325.73  13.10
486.0  10943.49  1502.46  13.73
496.0  12761.25  1978.94  15.51
506.0  14311.81  2775.47  19.39
516.0  15112.04  3760.54  24.88
526.0  16957.18  5128.88  30.25
536.0  19355.60  6500.10  33.58
546.0  21330.59  7545.54  35.37
556.0  21581.55  7873.66  36.48
566.0  23226.44  8406.12  36.19
576.0  25810.52  8937.84  34.63
586.0  27755.51  9245.34  33.31
596.0  29194.08  9451.28  32.37
606.0  29534.45  9239.56  31.28
616.0  31318.23  9183.72  29.32
626.0  34410.58  9461.78  27.50
636.0  34069.21  9191.67  26.98
646.0  34679.65  9055.87  26.11
656.0  34069.42  7665.81  22.50
666.0  35802.93  6452.19  18.02
676.0  37841.78  6150.00  16.25
686.0  40854.13  8333.70  20.40
696.0  41747.28  14510.90  34.76
706.0  41971.06  20322.39  48.42
716.0  41223.34  23386.52  56.73
726.0  40067.78  24742.75  61.75
736.0  39511.29  25409.71  64.31
746.0  41985.01  27746.90  66.09
756.0  42844.63  28506.52  66.53
766.0  44461.06  30109.44  67.72
776.0  45318.27  30935.71  68.26
786.0  45304.05  31264.62  69.01
796.0  44083.17  30362.86  68.88
806.0  42558.06  29533.44  69.40
816.0  42205.19  29494.35  69.88
826.0  41881.04  29090.78  69.46
836.0  42513.48  29334.68  69.00
846.0  43677.73  30266.98  69.30
856.0  44639.93  30838.17  69.08
866.0  45173.91  31222.37  69.12
876.0  45452.84  31306.71  68.88
886.0  45709.40  31068.32  67.97
896.0  45235.90  30391.90  67.19
906.0  45023.00  29899.14  66.41
916.0  44495.20  29100.16  65.40
926.0  44269.25  28153.48  63.60
936.0  45413.73  27705.46  61.01
946.0  46396.61  26947.52  58.08
956.0  47429.46  25872.07  54.55
966.0  48326.20  25574.20  52.92
976.0  49108.57  25669.71  52.27
986.0  50490.65  25069.77  49.65
996.0  50607.35  25869.11  51.12
1006.0  50486.13  26410.78  52.31
1016.0  50803.76  27293.95  53.72
1026.0  50772.47  28008.18  55.16
1036.0  50488.61  28524.47  56.50
1046.0  50910.83  29407.33  57.76
1056.0  51254.42  30108.79  58.74
1066.0  51336.62  30405.12  59.23
1076.0  51162.22  30309.52  59.24
1086.0  51303.09  30153.64  58.78
1096.0  51344.30  29728.83  57.90
1106.0  51211.90  29121.97  56.87
1116.0  50831.30  28278.38  55.63
1126.0  50674.44  27109.57  53.50
1136.0  50616.91  25089.77  49.57
1146.0  50531.75  22685.83  44.89
1156.0  50358.44  21181.81  42.06
1166.0  50175.54  20603.25  41.06
1176.0  50092.24  20354.96  40.63
1186.0  50160.75  20190.84  40.25
1196.0  49589.85  19817.72  39.96
1206.0  49136.73  19676.28  40.04
1216.0  48856.16  19702.54  40.33
1226.0  48538.40  19822.69  40.84
1236.0  48332.55  19953.15  41.28
1246.0  48044.92  20028.53  41.69
1256.0  47756.51  20030.07  41.94
1266.0  47442.71  19945.28  42.04
1276.0  47551.66  19894.53  41.84
1286.0  47606.03  19653.86  41.28
1296.0  47326.24  19118.23  40.40
1306.0  46758.50  18273.89  39.08
1316.0  46095.57  17233.07  37.39
1326.0  45453.96  16053.78  35.32
1336.0  44765.54  14859.92  33.19
1346.0  44091.89  13801.20  31.30
1356.0  43065.01  12818.80  29.77
1366.0  42453.65  11896.63  28.02
1376.0  42338.17  10849.71  25.63
1386.0  41985.88  9166.66  21.83
1396.0  41548.36  7469.75  17.98
1406.0  41106.41  6236.22  15.17
1416.0  41061.27  5574.63  13.58
1426.0  40954.01  5236.35  12.79
1436.0  40796.14  5060.82  12.41
1446.0  40594.32  4975.32  12.26
1456.0  40330.62  4940.47  12.25
1466.0  40125.74  4993.77  12.45
1476.0  39754.25  5118.79  12.88
1486.0  39484.92  5356.12  13.56
1496.0  39151.21  5644.45  14.42
1506.0  38800.67  5842.07  15.06
1516.0  38385.61  5951.02  15.50
1526.0  38038.86  6221.55  16.36
1536.0  37757.73  6457.35  17.10
1546.0  37407.06  6676.63  17.85
1556.0  37137.95  6862.71  18.48
1566.0  36823.70  7032.27  19.10
1576.0  36372.01  7216.31  19.84
1586.0  36009.48  7334.95  20.37
1596.0  35619.37  7411.83  20.81
1606.0  35232.08  7492.13  21.27
1616.0  34829.65  7562.26  21.71
1626.0  34452.68  7618.80  22.11
1636.0  34007.58  7640.52  22.47
1646.0  33523.68  7599.40  22.67
1656.0  33037.62  7508.00  22.73
1666.0  32548.04  7407.34  22.76
1676.0  32123.29  7300.45  22.73
1686.0  32117.51  7238.21  22.54
1696.0  31764.57  7066.45  22.25
1706.0  31316.98  6829.98  21.81
1716.0  30611.05  6519.49  21.30
1726.0  30177.81  6271.55  20.78
1736.0  29812.17  6110.21  20.50
1746.0  29439.81  5931.04  20.15
1756.0  28928.41  5678.43  19.63
1766.0  28491.94  5469.62  19.20
1776.0  28263.25  5360.48  18.97
1786.0  27973.79  5252.76  18.78
1796.0  27612.53  5164.34  18.70
1806.0  27286.01  5108.76  18.72
1816.0  26879.26  5043.73  18.76
1826.0  26408.56  4945.74  18.73
1836.0  25765.82  4797.44  18.62
1846.0  25402.19  4699.60  18.50
1856.0  25067.72  4549.70  18.15
1866.0  24868.79  4071.45  16.37
1876.0  24488.38  3307.41  13.51
1886.0  24233.30  2666.70  11.00
1896.0  23683.96  2278.98  9.62
1906.0  22096.75  1471.78  6.66
1916.0  21802.32  1367.90  6.27
1926.0  21588.87  1347.40  6.24
1936.0  21449.43  1324.84  6.18
1946.0  21420.23  1355.04  6.33
1956.0  21201.75  1399.20  6.60
1966.0  21198.12  1456.24  6.87
1976.0  21006.67  1493.91  7.11
1986.0  20732.55  1550.86  7.48
1996.0  20450.49  1606.68  7.86
2006.0  20269.19  1664.18  8.21
2016.0  19957.87  1702.88  8.53
2026.0  19629.85  1750.38  8.92
2036.0  19319.95  1793.23  9.28
2046.0  19073.35  1829.22  9.59
2056.0  18736.02  1849.69  9.87
2066.0  18425.00  1862.73  10.11
2076.0  18163.31  1903.06  10.48
2086.0  17998.96  1935.78  10.75
2096.0  17698.67  1952.69  11.03
2106.0  17393.37  1966.93  11.31
2116.0  17301.34  2014.82  11.65
2126.0  17117.10  2041.77  11.93
2136.0  16805.93  2039.90  12.14
2146.0  16338.81  2027.58  12.41
2156.0  16108.43  2034.64  12.63
2166.0  15818.08  2011.11  12.71
2176.0  15571.16  1995.72  12.82
2186.0  15407.91  1987.48  12.90
2196.0  15291.27  1949.47  12.75
2206.0  15252.10  1974.66  12.95
2216.0  15137.72  1964.86  12.98
2226.0  14957.58  1905.29  12.74
2236.0  14828.49  1839.61  12.41
2246.0  14572.63  1797.76  12.34
2256.0  14413.52  1698.31  11.78
2266.0  14283.01  1636.68  11.46
2276.0  14142.85  1578.89  11.16
2286.0  14066.30  1517.43  10.79
2296.0  13956.39  1427.32  10.23
2306.0  13536.25  1310.91  9.68
2316.0  13130.37  1288.82  9.82
2326.0  13082.91  1302.81  9.96
2336.0  13030.52  1236.45  9.49
2346.0  12874.44  1188.27  9.23
2356.0  12605.38  1124.08  8.92
2366.0  12490.11  1099.21  8.80
2376.0  12262.88  1056.61  8.62
2386.0  12077.58  1021.42  8.46
2396.0  11871.57  982.22  8.27
2406.0  11728.43  943.69  8.05
2416.0  11508.86  914.32  7.94
2426.0  11344.58  864.42  7.62
2436.0  11091.32  799.92  7.21
2446.0  10929.32  805.56  7.37
2456.0  10711.77  779.31  7.28
2466.0  10484.26  717.06  6.84
2476.0  10216.57  687.54  6.73
2486.0  9941.47  633.57  6.37
2496.0  9864.73  628.51  6.37
2506.0  10308.86  677.64  6.57
