/*** Spectra Vista SIG Data ***/
name= GS3.sig
comm= Averaged Ref/Tar of files: GD4S7,GD4S8,GD4S9
data=
346.4  1.00  163.07  16307.33
347.9  1.00  161.48  16148.00
349.5  1.00  169.31  16931.00
351.1  1.00  175.97  17596.67
352.6  1.00  177.52  17752.33
354.2  1.00  191.12  19111.67
355.7  1.00  203.85  20384.67
357.3  1.00  208.97  20897.33
358.8  1.00  211.56  21156.33
360.4  1.00  222.31  22231.00
361.9  1.00  229.84  22984.33
363.5  1.00  228.53  22852.67
365.1  1.00  234.86  23486.33
366.6  1.00  234.31  23431.00
368.2  1.00  238.61  23860.67
369.7  1.00  243.79  24378.67
371.3  1.00  258.13  25813.33
372.8  1.00  266.49  26648.67
374.4  1.00  273.68  27367.67
375.9  1.00  280.24  28024.33
377.4  1.00  281.45  28145.33
379.0  1.00  280.91  28091.00
380.5  1.00  281.49  28149.00
382.1  1.00  289.98  28998.33
383.6  1.00  286.15  28614.67
385.2  1.00  299.93  29993.33
386.7  1.00  304.68  30468.33
388.3  1.00  315.23  31523.00
389.8  1.00  330.13  33013.33
391.3  1.00  340.51  34051.33
392.9  1.00  352.78  35278.00
394.4  1.00  370.74  37074.00
395.9  1.00  387.27  38726.67
397.5  1.00  396.21  39621.33
399.0  1.00  402.52  40252.33
400.6  1.00  412.05  41205.00
402.1  1.00  405.92  40592.00
403.6  1.00  411.73  41173.00
405.1  1.00  417.39  41739.33
406.7  1.00  436.06  43605.67
408.2  1.00  455.60  45560.00
409.7  1.00  469.50  46950.33
411.3  1.00  486.23  48623.33
412.8  1.00  509.08  50908.00
414.3  1.00  524.09  52409.00
415.8  1.00  545.33  54533.33
417.4  1.00  565.37  56537.00
418.9  1.00  586.96  58695.67
420.4  1.00  596.87  59687.00
421.9  1.00  602.42  60242.00
423.5  1.00  619.55  61955.33
425.0  1.00  631.70  63170.00
426.5  1.00  641.27  64127.33
428.0  1.00  654.89  65488.67
429.5  1.00  672.55  67255.33
431.1  1.00  697.11  69711.33
432.6  1.00  724.40  72439.67
434.1  1.00  747.41  74741.33
435.6  1.00  770.65  77064.67
437.1  1.00  791.70  79170.00
438.6  1.00  812.46  81246.00
440.1  1.00  845.07  84507.33
441.6  1.00  864.55  86454.67
443.1  1.00  895.32  89532.00
444.7  1.00  922.83  92283.33
446.2  1.00  956.51  95651.00
447.7  1.00  985.83  98583.33
449.2  1.00  1011.46  101146.00
450.7  1.00  1038.89  103889.33
452.2  1.00  1068.70  106869.67
453.7  1.00  1101.36  110136.00
455.2  1.00  1141.38  114138.33
456.7  1.00  1182.02  118201.67
458.2  1.00  1228.84  122884.00
459.7  1.00  1277.73  127773.33
461.2  1.00  1323.51  132351.33
462.7  1.00  1362.31  136230.67
464.2  1.00  1403.49  140349.00
465.7  1.00  1439.17  143916.67
467.2  1.00  1475.32  147532.00
468.7  1.00  1521.33  152133.33
470.2  1.00  1556.98  155697.67
471.7  1.00  1592.83  159283.33
473.2  1.00  1614.92  161492.00
474.6  1.00  1645.68  164568.33
476.1  1.00  1680.45  168045.33
477.6  1.00  1701.98  170198.00
479.1  1.00  1720.84  172083.67
480.6  1.00  1733.50  173349.67
482.1  1.00  1756.86  175686.33
483.6  1.00  1789.86  178986.33
485.1  1.00  1832.50  183250.00
486.6  1.00  1888.92  188891.67
488.0  1.00  1948.48  194848.33
489.5  1.00  2019.18  201918.33
491.0  1.00  2093.03  209302.67
492.5  1.00  2178.58  217857.67
494.0  1.00  2274.18  227417.67
495.4  1.00  2370.28  237028.00
496.9  1.00  2475.16  247516.33
498.4  1.00  2586.59  258659.00
499.9  1.00  2711.82  271182.00
501.4  1.00  2847.84  284784.00
502.8  1.00  2983.47  298347.33
504.3  1.00  3132.48  313248.00
505.8  1.00  3285.36  328535.67
507.2  1.00  3434.13  343413.00
508.7  1.00  3584.03  358403.33
510.2  1.00  3732.87  373287.00
511.6  1.00  3881.84  388184.33
513.1  1.00  4043.69  404368.67
514.6  1.00  4210.96  421095.67
516.0  1.00  4381.39  438138.67
517.5  1.00  4571.58  457158.00
519.0  1.00  4774.26  477426.33
520.5  1.00  4983.19  498319.33
521.9  1.00  5203.22  520321.67
523.4  1.00  5434.27  543427.00
524.8  1.00  5661.41  566140.67
526.3  1.00  5898.52  589851.67
527.8  1.00  6129.08  612907.67
529.2  1.00  6337.13  633712.67
530.7  1.00  6558.96  655895.67
532.1  1.00  6757.51  675751.00
533.6  1.00  6963.51  696351.00
535.0  1.00  7170.93  717093.33
536.5  1.00  7371.89  737188.67
538.0  1.00  7574.91  757491.33
539.4  1.00  7759.99  775999.33
540.9  1.00  7960.70  796070.33
542.3  1.00  8138.37  813837.33
543.8  1.00  8282.78  828278.00
545.2  1.00  8370.66  837066.33
546.6  1.00  8417.01  841700.67
548.1  1.00  8468.42  846841.67
549.5  1.00  8504.40  850439.67
551.0  1.00  8530.77  853077.00
552.4  1.00  8575.71  857571.33
553.9  1.00  8596.30  859629.67
555.3  1.00  8619.62  861962.33
556.8  1.00  8665.55  866555.33
558.2  1.00  8704.58  870457.67
559.6  1.00  8755.83  875583.00
561.1  1.00  8823.32  882331.67
562.5  1.00  8897.08  889708.33
564.0  1.00  8996.88  899688.00
565.4  1.00  9076.05  907605.33
566.8  1.00  9175.29  917529.00
568.3  1.00  9264.12  926412.33
569.7  1.00  9343.29  934329.00
571.1  1.00  9412.90  941289.67
572.6  1.00  9475.06  947505.67
574.0  1.00  9532.38  953238.00
575.4  1.00  9585.00  958500.33
576.9  1.00  9635.47  963547.33
578.3  1.00  9673.95  967395.33
579.7  1.00  9709.81  970981.33
581.1  1.00  9736.71  973670.67
582.6  1.00  9768.14  976814.00
584.0  1.00  9793.83  979383.33
585.4  1.00  9836.54  983653.67
586.8  1.00  9913.56  991355.67
588.3  1.00  10012.70  1001270.33
589.7  1.00  10088.21  1008821.00
591.1  1.00  10125.93  1012592.67
592.5  1.00  10138.72  1013871.67
594.0  1.00  10128.53  1012852.67
595.4  1.00  10098.05  1009805.00
596.8  1.00  10068.63  1006863.00
598.2  1.00  10037.13  1003713.00
599.6  1.00  9989.27  998926.67
601.0  1.00  9968.54  996854.00
602.4  1.00  9934.25  993425.00
603.9  1.00  9912.45  991245.33
605.3  1.00  9888.34  988834.33
606.7  1.00  9849.60  984960.00
608.1  1.00  9841.34  984134.00
609.5  1.00  9832.04  983203.67
610.9  1.00  9835.90  983589.67
612.3  1.00  9829.19  982919.00
613.7  1.00  9838.03  983803.33
615.1  1.00  9807.70  980770.00
616.5  1.00  9782.58  978258.33
617.9  1.00  9820.76  982076.00
619.3  1.00  9861.97  986197.33
620.7  1.00  9950.12  995012.00
622.1  1.00  10041.95  1004194.67
623.5  1.00  10155.75  1015575.33
624.9  1.00  10288.29  1028828.67
626.3  1.00  10381.00  1038100.33
627.7  1.00  10263.07  1026306.67
629.1  1.00  10155.61  1015561.33
630.5  1.00  10083.91  1008391.00
631.9  1.00  9962.65  996264.67
633.3  1.00  9792.29  979228.67
634.7  1.00  9676.96  967696.00
636.1  1.00  9574.67  957467.00
637.5  1.00  9577.36  957736.00
638.9  1.00  9592.11  959211.00
640.2  1.00  9608.43  960843.33
641.6  1.00  9591.19  959119.00
643.0  1.00  9533.77  953376.67
644.4  1.00  9470.47  947047.00
645.8  1.00  9383.15  938315.00
647.2  1.00  9346.48  934648.00
648.5  1.00  9298.60  929859.67
649.9  1.00  9197.65  919765.33
651.3  1.00  9116.42  911642.00
652.7  1.00  9003.20  900320.00
654.1  1.00  8686.10  868609.67
655.5  1.00  8331.61  833161.33
656.8  1.00  7987.07  798706.67
658.2  1.00  7773.29  777329.00
659.6  1.00  7631.85  763184.67
660.9  1.00  7470.44  747044.00
662.3  1.00  7303.66  730366.33
663.7  1.00  7126.28  712628.00
665.0  1.00  6968.88  696887.67
666.4  1.00  6831.02  683102.00
667.8  1.00  6730.26  673026.00
669.1  1.00  6636.71  663670.67
670.5  1.00  6584.75  658475.00
671.9  1.00  6541.87  654187.00
673.2  1.00  6529.82  652982.00
674.6  1.00  6539.01  653901.00
676.0  1.00  6598.56  659856.33
677.3  1.00  6677.18  667718.33
678.7  1.00  6789.80  678980.00
680.0  1.00  6969.86  696985.67
681.4  1.00  7227.87  722786.67
682.8  1.00  7573.63  757362.67
684.1  1.00  8019.33  801933.33
685.5  1.00  8580.13  858013.00
686.8  1.00  9220.73  922073.33
688.2  1.00  9958.62  995861.67
689.5  1.00  10729.75  1072974.67
690.9  1.00  11571.43  1157142.67
692.2  1.00  12447.06  1244706.00
693.6  1.00  13374.36  1337436.00
694.9  1.00  14287.28  1428728.33
696.2  1.00  15213.47  1521347.00
697.6  1.00  16104.15  1610415.00
698.9  1.00  16975.55  1697555.33
700.3  1.00  17824.57  1782456.67
701.6  1.00  18625.63  1862562.67
703.0  1.00  19354.12  1935411.67
704.3  1.00  20002.34  2000234.33
705.6  1.00  20598.38  2059838.33
707.0  1.00  21157.92  2115792.00
708.3  1.00  21637.93  2163793.00
709.6  1.00  22077.07  2207707.33
711.0  1.00  22435.65  2243564.67
712.3  1.00  22759.44  2275944.33
713.6  1.00  23089.19  2308919.33
714.9  1.00  23380.84  2338084.00
716.3  1.00  23682.91  2368291.33
717.6  1.00  23974.05  2397405.00
718.9  1.00  24164.55  2416454.67
720.2  1.00  24275.45  2427545.00
721.6  1.00  24390.83  2439082.67
722.9  1.00  24479.61  2447961.33
724.2  1.00  24520.98  2452098.00
725.5  1.00  24590.90  2459090.00
726.8  1.00  24617.07  2461707.00
728.1  1.00  24672.08  2467208.33
729.5  1.00  24713.57  2471357.00
730.8  1.00  24771.82  2477182.33
732.1  1.00  24804.45  2480444.67
733.4  1.00  24846.27  2484627.33
734.7  1.00  24863.51  2486351.33
736.0  1.00  24919.17  2491917.00
737.3  1.00  24948.69  2494869.33
738.6  1.00  25076.60  2507660.00
739.9  1.00  25277.55  2527755.00
741.2  1.00  25433.05  2543304.67
742.5  1.00  25688.39  2568839.33
743.8  1.00  26059.88  2605988.33
745.1  1.00  26586.47  2658646.67
746.4  1.00  27174.00  2717399.67
747.7  1.00  27747.97  2774797.33
749.0  1.00  28260.26  2826025.67
750.3  1.00  28491.16  2849115.67
751.6  1.00  28398.22  2839821.67
752.9  1.00  28142.85  2814285.33
754.2  1.00  27867.57  2786757.33
755.4  1.00  27596.44  2759644.33
756.7  1.00  27564.14  2756414.33
758.0  1.00  27685.52  2768552.00
759.3  1.00  27956.51  2795651.00
760.6  1.00  28286.31  2828631.00
761.9  1.00  28582.90  2858290.33
763.1  1.00  28750.93  2875093.33
764.4  1.00  28931.81  2893181.33
765.7  1.00  29090.97  2909096.67
767.0  1.00  29245.18  2924518.00
768.2  1.00  29367.74  2936774.33
769.5  1.00  29468.42  2946842.00
770.8  1.00  29627.72  2962771.67
772.0  1.00  29671.17  2967117.33
773.3  1.00  29754.18  2975418.33
774.6  1.00  29853.51  2985350.67
775.8  1.00  29915.95  2991595.00
777.1  1.00  29954.07  2995406.67
778.4  1.00  29933.94  2993393.67
779.6  1.00  29953.41  2995341.33
780.9  1.00  29937.60  2993760.00
782.1  1.00  29870.97  2987097.33
783.4  1.00  29893.21  2989320.67
784.6  1.00  29940.60  2994059.67
785.9  1.00  30230.48  3023047.67
787.1  1.00  30679.72  3067972.00
788.4  1.00  30938.79  3093879.00
789.6  1.00  30758.73  3075873.33
790.9  1.00  30379.10  3037910.33
792.1  1.00  30058.20  3005820.00
793.4  1.00  29767.82  2976781.67
794.6  1.00  29542.38  2954237.67
795.8  1.00  29355.00  2935500.00
797.1  1.00  29165.32  2916532.00
798.3  1.00  29049.08  2904907.67
799.5  1.00  28988.02  2898801.67
800.8  1.00  28904.17  2890417.00
802.0  1.00  28820.73  2882072.67
803.2  1.00  28702.00  2870200.00
804.5  1.00  28617.18  2861717.67
805.7  1.00  28503.21  2850320.67
806.9  1.00  28382.61  2838261.00
808.1  1.00  28325.18  2832518.33
809.4  1.00  28275.89  2827588.67
810.6  1.00  28209.39  2820939.33
811.8  1.00  28208.67  2820866.67
813.0  1.00  28234.76  2823476.00
814.2  1.00  28270.13  2827012.67
815.4  1.00  28326.61  2832661.00
816.6  1.00  28336.57  2833657.00
817.9  1.00  28327.65  2832765.00
819.1  1.00  28234.72  2823472.33
820.3  1.00  28104.27  2810426.67
821.5  1.00  28008.05  2800805.00
822.7  1.00  27937.21  2793721.33
823.9  1.00  27895.89  2789589.33
825.1  1.00  27851.70  2785170.00
826.3  1.00  27838.26  2783825.67
827.5  1.00  27809.48  2780947.67
828.7  1.00  27784.99  2778499.00
829.9  1.00  27770.32  2777031.67
831.0  1.00  27780.76  2778075.67
832.2  1.00  27805.26  2780526.33
833.4  1.00  27808.31  2780830.67
834.6  1.00  27838.75  2783875.33
835.8  1.00  27881.91  2788191.00
837.0  1.00  27951.54  2795153.67
838.1  1.00  28047.49  2804748.67
839.3  1.00  28112.24  2811224.00
840.5  1.00  28197.63  2819762.67
841.7  1.00  28295.68  2829568.00
842.9  1.00  28429.67  2842967.33
844.0  1.00  28509.90  2850989.67
845.2  1.00  28622.53  2862253.00
846.4  1.00  28702.76  2870276.00
847.5  1.00  28879.52  2887952.00
848.7  1.00  29009.52  2900952.00
849.9  1.00  29107.92  2910791.67
851.0  1.00  29091.54  2909154.00
852.2  1.00  29129.58  2912958.33
853.3  1.00  29102.40  2910240.33
854.5  1.00  29100.85  2910085.00
855.6  1.00  29080.68  2908068.33
856.8  1.00  29107.17  2910717.33
857.9  1.00  29081.13  2908113.33
859.1  1.00  29172.24  2917224.00
860.2  1.00  29192.79  2919279.00
861.4  1.00  29234.47  2923446.67
862.5  1.00  29288.64  2928864.00
863.7  1.00  29337.56  2933756.00
864.8  1.00  29363.74  2936374.00
865.9  1.00  29343.53  2934352.67
867.1  1.00  29362.08  2936208.00
868.2  1.00  29379.41  2937941.00
869.3  1.00  29364.79  2936479.00
870.5  1.00  29320.48  2932048.33
871.6  1.00  29323.20  2932320.33
872.7  1.00  29366.86  2936685.67
873.9  1.00  29380.60  2938059.67
875.0  1.00  29342.38  2934238.33
876.1  1.00  29344.47  2934447.00
877.2  1.00  29339.50  2933950.33
878.3  1.00  29336.69  2933668.67
879.4  1.00  29346.39  2934638.67
880.5  1.00  29350.94  2935094.33
881.7  1.00  29306.85  2930685.33
882.8  1.00  29288.70  2928870.00
883.9  1.00  29268.73  2926873.33
885.0  1.00  29195.26  2919525.67
886.1  1.00  29098.46  2909846.33
887.2  1.00  28950.32  2895032.00
888.3  1.00  28813.17  2881317.00
889.4  1.00  28720.02  2872002.33
890.5  1.00  28620.29  2862029.00
891.6  1.00  28548.39  2854839.33
892.7  1.00  28492.39  2849238.67
893.8  1.00  28490.56  2849056.00
894.9  1.00  28477.08  2847708.00
896.0  1.00  28420.88  2842088.33
897.0  1.00  28395.48  2839547.67
898.1  1.00  28398.70  2839870.33
899.2  1.00  28383.64  2838363.67
900.3  1.00  28288.94  2828894.33
901.4  1.00  28218.39  2821839.33
902.4  1.00  28167.57  2816756.67
903.5  1.00  28104.17  2810417.00
904.6  1.00  28064.56  2806455.67
905.7  1.00  28012.28  2801228.33
906.7  1.00  27972.33  2797233.33
907.8  1.00  27966.41  2796640.67
908.9  1.00  27881.45  2788145.00
909.9  1.00  27810.11  2781011.00
911.0  1.00  27755.23  2775522.67
912.1  1.00  27657.33  2765733.00
913.1  1.00  27557.30  2755729.67
914.2  1.00  27425.05  2742505.33
915.2  1.00  27383.26  2738325.67
916.3  1.00  27302.50  2730250.00
917.3  1.00  27237.69  2723768.67
918.4  1.00  27106.20  2710620.00
919.4  1.00  27004.21  2700421.00
920.5  1.00  26943.40  2694339.67
921.5  1.00  26873.24  2687324.33
922.6  1.00  26755.36  2675536.00
923.6  1.00  26702.74  2670274.00
924.7  1.00  26634.20  2663420.00
925.7  1.00  26527.36  2652736.00
926.7  1.00  26447.94  2644793.67
927.8  1.00  26337.93  2633793.33
928.8  1.00  26321.86  2632186.33
929.9  1.00  26280.35  2628035.33
930.9  1.00  26286.13  2628613.00
931.9  1.00  26281.80  2628180.00
932.9  1.00  26343.73  2634373.33
934.0  1.00  26259.70  2625970.00
935.0  1.00  26174.43  2617443.00
936.0  1.00  26065.32  2606531.67
937.0  1.00  25932.69  2593268.67
938.1  1.00  25788.46  2578845.67
939.1  1.00  25654.96  2565496.00
940.1  1.00  25563.60  2556360.00
941.1  1.00  25589.20  2558920.33
942.1  1.00  25644.87  2564487.00
943.1  1.00  25633.87  2563387.00
944.1  1.00  25637.85  2563785.33
945.2  1.00  25524.41  2552441.00
946.2  1.00  25428.11  2542810.67
947.2  1.00  25348.30  2534830.00
948.2  1.00  25305.86  2530585.67
949.2  1.00  25251.10  2525109.67
950.2  1.00  25121.40  2512140.00
951.2  1.00  25045.22  2504522.00
952.2  1.00  24913.69  2491369.33
953.2  1.00  24827.23  2482723.00
954.2  1.00  24751.14  2475114.00
955.2  1.00  24651.69  2465169.33
956.2  1.00  24542.86  2454286.33
957.2  1.00  24483.93  2448392.67
958.2  1.00  24452.55  2445255.33
959.2  1.00  24424.44  2442444.00
960.1  1.00  24377.18  2437718.00
961.1  1.00  24391.39  2439139.33
962.1  1.00  24350.88  2435088.00
963.1  1.00  24337.93  2433793.00
964.1  1.00  24385.34  2438534.33
965.1  1.00  24441.06  2444106.33
966.1  1.00  24441.11  2444111.33
967.0  1.00  24475.60  2447560.33
968.0  1.00  24504.31  2450430.67
969.0  1.00  24592.88  2459288.00
970.0  1.00  24594.65  2459465.33
971.0  1.00  24641.22  2464122.00
971.9  1.00  24631.48  2463148.00
972.9  1.00  24735.03  2473503.00
973.9  1.00  24771.24  2477124.00
974.9  1.00  24831.77  2483176.67
975.8  1.00  24897.13  2489713.00
976.8  1.00  24921.92  2492192.00
977.8  1.00  25023.01  2502300.67
978.8  1.00  25133.44  2513344.00
979.7  1.00  25307.19  2530719.00
980.7  1.00  25444.30  2544429.67
981.7  1.00  25680.71  2568071.00
982.6  1.00  26027.82  2602782.33
983.6  1.00  26398.56  2639855.67
984.6  1.00  26614.40  2661440.33
985.5  1.00  27283.97  2728396.67
986.5  1.00  27718.45  2771844.67
987.5  1.00  28535.25  2853525.33
988.4  1.00  29050.85  2905085.33
989.4  1.00  29811.20  2981119.67
990.4  1.00  30809.40  3080940.33
991.3  1.00  31175.96  3117595.67
992.3  1.00  31509.88  3150987.67
993.2  1.00  32701.83  3270183.00
994.2  1.00  33363.92  3336391.67
995.2  1.00  32938.55  3293855.00
996.1  1.00  33904.83  3390483.33
997.1  1.00  33483.50  3348350.33
998.0  1.00  33437.76  3343776.00
999.0  1.00  33049.88  3304987.67
1000.0  1.00  33951.36  3395136.00
1000.9  1.00  34050.00  3405000.33
1001.9  1.00  33245.67  3324567.00
1002.8  1.00  32169.10  3216909.67
1003.8  1.00  33225.54  3322554.00
1004.8  1.00  32857.92  3285792.00
961.5  1.00  25072.61  2507260.67
965.5  1.00  24821.14  2482113.67
969.5  1.00  24209.84  2420984.33
973.4  1.00  23410.51  2341051.00
977.4  1.00  22681.34  2268134.33
981.4  1.00  22536.32  2253632.00
985.3  1.00  22758.06  2275806.00
989.3  1.00  23168.13  2316813.33
993.3  1.00  23629.16  2362916.33
997.2  1.00  23918.53  2391853.33
1001.2  1.00  24108.11  2410811.00
1005.2  1.00  24274.83  2427483.00
1009.1  1.00  24529.48  2452948.33
1013.1  1.00  24883.27  2488327.00
1017.1  1.00  25228.29  2522828.67
1021.0  1.00  25509.98  2550998.33
1025.0  1.00  25762.81  2576281.33
1029.0  1.00  25918.00  2591800.00
1032.9  1.00  26074.36  2607436.00
1036.9  1.00  26307.62  2630762.00
1040.9  1.00  26612.98  2661297.67
1044.8  1.00  26957.61  2695761.33
1048.8  1.00  27273.06  2727306.33
1052.7  1.00  27529.68  2752968.33
1056.7  1.00  27709.09  2770908.67
1060.7  1.00  27841.40  2784139.67
1064.6  1.00  27929.20  2792920.33
1068.6  1.00  27921.90  2792190.33
1072.5  1.00  27874.06  2787405.67
1076.5  1.00  27819.28  2781927.67
1080.4  1.00  27757.06  2775705.67
1084.4  1.00  27705.23  2770523.33
1088.3  1.00  27635.79  2763578.67
1092.3  1.00  27467.78  2746777.67
1096.2  1.00  27267.03  2726703.33
1100.2  1.00  27084.94  2708494.00
1104.1  1.00  26833.44  2683344.00
1108.1  1.00  26611.18  2661118.00
1112.0  1.00  26338.22  2633821.67
1116.0  1.00  25981.33  2598132.67
1119.9  1.00  25590.67  2559067.00
1123.9  1.00  25243.51  2524351.33
1127.8  1.00  24718.08  2471808.00
1131.8  1.00  24034.75  2403475.00
1135.7  1.00  23252.83  2325283.00
1139.6  1.00  22402.28  2240228.33
1143.6  1.00  21576.82  2157682.33
1147.5  1.00  20877.04  2087703.67
1151.4  1.00  20274.43  2027442.67
1155.4  1.00  19900.49  1990049.00
1159.3  1.00  19664.70  1966470.33
1163.2  1.00  19452.85  1945285.33
1167.2  1.00  19349.64  1934964.00
1171.1  1.00  19285.34  1928534.00
1175.0  1.00  19212.20  1921220.00
1179.0  1.00  19152.98  1915298.00
1182.9  1.00  19132.43  1913243.00
1186.8  1.00  19066.44  1906643.67
1190.7  1.00  18926.20  1892620.00
1194.7  1.00  18787.39  1878739.33
1198.6  1.00  18682.13  1868212.67
1202.5  1.00  18622.82  1862281.67
1206.4  1.00  18598.43  1859843.33
1210.3  1.00  18598.81  1859881.33
1214.2  1.00  18620.55  1862055.00
1218.2  1.00  18630.81  1863081.00
1222.1  1.00  18656.59  1865658.67
1226.0  1.00  18710.80  1871080.00
1229.9  1.00  18753.52  1875352.00
1233.8  1.00  18786.00  1878600.00
1237.7  1.00  18839.00  1883900.33
1241.6  1.00  18874.33  1887432.67
1245.5  1.00  18862.12  1886211.67
1249.4  1.00  18865.51  1886550.67
1253.3  1.00  18882.84  1888284.00
1257.2  1.00  18893.08  1889307.67
1261.1  1.00  18863.60  1886360.33
1265.0  1.00  18807.33  1880732.67
1268.9  1.00  18726.92  1872691.67
1272.8  1.00  18745.40  1874540.00
1276.7  1.00  18792.14  1879213.67
1280.6  1.00  18771.39  1877139.00
1284.5  1.00  18645.87  1864587.00
1288.4  1.00  18523.48  1852348.33
1292.3  1.00  18342.50  1834250.00
1296.2  1.00  18125.90  1812590.00
1300.1  1.00  17882.79  1788279.00
