/*** Spectra Vista SIG Data ***/
name= T2.sig
comm= SIG file reprocesed for matching/overlap;Averaged Ref/Tar of files: GD3T4,GD3T5,GD3T6
data=
346.4  598.78  90.88  15.18
347.9  627.50  90.36  14.40
349.5  677.04  96.10  14.19
351.1  739.44  94.85  12.83
352.6  790.63  105.84  13.39
354.2  841.03  102.10  12.14
355.7  912.59  108.66  11.91
357.3  974.37  116.51  11.96
358.8  992.58  115.10  11.60
360.4  1062.29  117.25  11.04
361.9  1117.88  116.08  10.38
363.5  1149.55  123.73  10.76
365.1  1196.29  118.36  9.89
366.6  1260.16  124.29  9.86
368.2  1349.72  120.87  8.96
369.7  1403.95  121.89  8.68
371.3  1488.21  122.48  8.23
372.8  1577.00  126.16  8.00
374.4  1638.71  131.28  8.01
375.9  1688.10  127.10  7.53
377.4  1740.09  128.37  7.38
379.0  1788.57  131.55  7.36
380.5  1855.73  133.77  7.21
382.1  1905.98  130.02  6.82
383.6  1973.16  127.39  6.46
385.2  2065.25  126.50  6.13
386.7  2149.76  131.40  6.11
388.3  2271.83  131.89  5.81
389.8  2363.45  131.39  5.56
391.3  2453.59  138.51  5.65
392.9  2526.36  144.15  5.71
394.4  2602.50  151.93  5.84
395.9  2690.98  160.35  5.96
397.5  2829.48  171.84  6.07
399.0  2963.31  170.16  5.74
400.6  3033.76  170.18  5.61
402.1  3072.78  158.24  5.15
403.6  3116.75  154.08  4.94
405.1  3199.00  157.51  4.92
406.7  3304.00  160.68  4.86
408.2  3412.53  164.24  4.81
409.7  3521.28  165.46  4.70
411.3  3642.17  175.95  4.83
412.8  3732.75  179.80  4.82
414.3  3845.02  188.29  4.90
415.8  3965.00  196.00  4.94
417.4  4085.95  200.71  4.91
418.9  4192.21  203.07  4.84
420.4  4267.16  205.05  4.81
421.9  4346.32  210.70  4.85
423.5  4413.15  209.53  4.75
425.0  4492.75  209.47  4.66
426.5  4594.55  214.14  4.66
428.0  4712.54  215.10  4.56
429.5  4856.53  220.41  4.54
431.1  5025.20  224.97  4.48
432.6  5198.44  228.14  4.39
434.1  5370.75  237.93  4.43
435.6  5520.56  246.39  4.46
437.1  5670.60  248.56  4.38
438.6  5806.58  253.62  4.37
440.1  5943.54  263.28  4.43
441.6  6091.61  269.94  4.43
443.1  6230.93  280.53  4.50
444.7  6356.12  289.62  4.56
446.2  6474.98  297.79  4.60
447.7  6582.53  306.94  4.66
449.2  6691.68  316.22  4.73
450.7  6814.08  325.31  4.77
452.2  6930.56  329.60  4.76
453.7  7066.33  333.02  4.71
455.2  7233.85  346.79  4.79
456.7  7443.04  356.69  4.79
458.2  7673.27  367.67  4.79
459.7  7920.50  380.80  4.81
461.2  8156.07  391.12  4.80
462.7  8366.46  405.49  4.85
464.2  8568.06  415.53  4.85
465.7  8788.58  428.07  4.87
467.2  8970.50  438.64  4.89
468.7  9176.00  446.40  4.86
470.2  9305.26  457.19  4.91
471.7  9490.50  475.63  5.01
473.2  9788.42  506.28  5.17
474.6  10042.30  510.66  5.09
476.1  10127.24  504.56  4.98
477.6  10169.21  503.21  4.95
479.1  10224.56  505.22  4.94
480.6  10293.47  511.14  4.97
482.1  10426.95  520.06  4.99
483.6  10590.11  530.36  5.01
485.1  10796.39  542.39  5.02
486.6  11041.55  560.81  5.08
488.0  11290.50  576.98  5.11
489.5  11568.25  597.77  5.17
491.0  11840.59  617.70  5.22
492.5  12119.22  642.38  5.30
494.0  12409.65  669.91  5.40
495.4  12660.45  698.72  5.52
496.9  12912.44  733.47  5.68
498.4  13155.80  769.52  5.85
499.9  13408.52  811.81  6.05
501.4  13645.90  856.91  6.28
502.8  13864.50  905.63  6.53
504.3  14081.40  955.92  6.79
505.8  14291.05  1014.38  7.10
507.2  14436.37  1072.78  7.43
508.7  14548.87  1135.16  7.80
510.2  14651.50  1202.29  8.21
511.6  14718.08  1271.50  8.64
513.1  14838.45  1347.65  9.08
514.6  14986.45  1430.81  9.55
516.0  15112.04  1508.95  9.99
517.5  15305.31  1609.36  10.52
519.0  15537.89  1704.71  10.97
520.5  15768.60  1810.78  11.48
521.9  16045.99  1921.03  11.97
523.4  16363.11  2035.64  12.44
524.8  16675.79  2150.53  12.90
526.3  17027.53  2269.49  13.33
527.8  17380.80  2385.60  13.73
529.2  17706.86  2494.00  14.08
530.7  18056.71  2600.13  14.40
532.1  18377.28  2706.55  14.73
533.6  18738.23  2810.31  15.00
535.0  19114.67  2916.38  15.26
536.5  19476.07  3011.32  15.46
538.0  19846.24  3111.32  15.68
539.4  20198.95  3203.76  15.86
540.9  20626.19  3311.86  16.06
542.3  20984.92  3404.96  16.23
543.8  21250.33  3479.24  16.37
545.2  21329.19  3526.56  16.53
546.6  21331.64  3558.68  16.68
548.1  21362.06  3599.94  16.85
549.5  21376.46  3633.40  17.00
551.0  21386.66  3663.47  17.13
552.4  21443.54  3700.89  17.26
553.9  21463.89  3722.48  17.34
555.3  21521.57  3744.70  17.40
556.8  21650.10  3773.65  17.43
558.2  21773.81  3794.63  17.43
559.6  21936.94  3818.82  17.41
561.1  22168.25  3849.73  17.37
562.5  22423.78  3877.84  17.29
564.0  22757.43  3912.20  17.19
565.4  23059.14  3936.49  17.07
566.8  23449.52  3966.66  16.92
568.3  23818.66  3985.34  16.73
569.7  24198.01  4000.77  16.53
571.1  24579.14  4009.51  16.31
572.6  24952.86  4015.01  16.09
574.0  25317.60  4018.08  15.87
575.4  25678.69  4020.53  15.66
576.9  26008.29  4021.02  15.46
578.3  26306.64  4018.30  15.27
579.7  26593.28  4016.69  15.10
581.1  26823.10  4005.69  14.93
582.6  27065.10  4000.77  14.78
584.0  27286.52  3995.21  14.64
585.4  27587.92  4002.15  14.51
586.8  27978.96  4030.12  14.40
588.3  28419.30  4061.62  14.29
589.7  28786.68  4084.08  14.19
591.1  29016.81  4094.74  14.11
592.5  29127.43  4089.70  14.04
594.0  29186.34  4072.96  13.96
595.4  29194.56  4057.71  13.90
596.8  29193.45  4049.19  13.87
598.2  29177.08  4032.07  13.82
599.6  29153.88  4009.45  13.75
601.0  29216.28  4002.28  13.70
602.4  29261.60  3983.44  13.61
603.9  29364.60  3968.71  13.52
605.3  29484.10  3947.80  13.39
606.7  29584.80  3926.40  13.27
608.1  29785.49  3910.41  13.13
609.5  30013.28  3894.45  12.98
610.9  30296.78  3879.17  12.80
612.3  30557.28  3862.71  12.64
613.7  30914.00  3854.22  12.47
615.1  31159.08  3830.55  12.29
616.5  31406.64  3813.48  12.14
617.9  31801.61  3816.30  12.00
619.3  32170.62  3817.97  11.87
620.7  32635.92  3835.52  11.75
622.1  33083.75  3859.22  11.67
623.5  33564.04  3910.40  11.65
624.9  34116.86  3981.74  11.67
626.3  34490.69  4049.04  11.74
627.7  34145.81  4036.63  11.82
629.1  33851.16  4022.98  11.88
630.5  33743.57  4023.53  11.92
631.9  33775.53  4034.47  11.94
633.3  33808.52  4028.42  11.92
634.7  33992.91  4020.76  11.83
636.1  34075.08  3994.47  11.72
637.5  34196.58  3970.00  11.61
638.9  34374.61  3912.27  11.38
640.2  34545.58  3841.53  11.12
641.6  34634.34  3744.00  10.81
643.0  34657.83  3628.59  10.47
644.4  34696.37  3494.79  10.07
645.8  34653.86  3349.84  9.67
647.2  34834.41  3218.25  9.24
648.5  34958.93  3093.39  8.85
649.9  34861.32  2952.77  8.47
651.3  34789.65  2838.32  8.16
652.7  34680.00  2745.16  7.92
654.1  34452.30  2706.66  7.86
655.5  34172.42  2684.67  7.86
656.8  33904.63  2644.13  7.80
658.2  34070.04  2625.28  7.71
659.6  34442.82  2600.05  7.55
660.9  34748.70  2563.83  7.38
662.3  35067.95  2520.97  7.19
663.7  35364.00  2476.32  7.00
665.0  35617.00  2429.86  6.82
666.4  35877.31  2384.66  6.65
667.8  36209.10  2355.85  6.51
669.1  36482.80  2328.03  6.38
670.5  36799.72  2316.47  6.29
671.9  36995.40  2303.30  6.23
673.2  37270.13  2305.39  6.19
674.6  37530.47  2318.86  6.18
676.0  37841.78  2339.16  6.18
677.3  38141.57  2379.36  6.24
678.7  38483.75  2436.38  6.33
680.0  38922.37  2516.88  6.47
681.4  39389.45  2627.29  6.67
682.8  39844.35  2774.89  6.96
684.1  40287.78  2958.38  7.34
685.5  40705.56  3193.40  7.85
686.8  41091.84  3492.22  8.50
688.2  41433.89  3843.84  9.28
689.5  41549.57  4246.20  10.22
690.9  41633.44  4702.95  11.30
692.2  41697.60  5204.72  12.48
693.6  41771.65  5751.65  13.77
694.9  41721.88  6320.84  15.15
696.2  41751.90  6929.33  16.60
697.6  41766.04  7557.44  18.09
698.9  41796.48  8191.39  19.60
700.3  41844.24  8829.16  21.10
701.6  41918.48  9458.03  22.56
703.0  41979.40  10078.19  24.01
704.3  41981.71  10660.67  25.39
705.6  41967.18  11209.10  26.71
707.0  41980.75  11736.58  27.96
708.3  41872.71  12200.50  29.14
709.6  41753.67  12656.76  30.31
711.0  41589.99  13058.56  31.40
712.3  41418.66  13434.78  32.44
713.6  41354.04  13823.10  33.43
714.9  41240.96  14180.50  34.38
716.3  41218.54  14547.53  35.29
717.6  41221.95  14903.91  36.16
718.9  41134.56  15211.02  36.98
720.2  40936.00  15463.78  37.78
721.6  40765.66  15695.51  38.50
722.9  40572.15  15902.24  39.19
724.2  40305.71  16039.50  39.79
725.5  40134.57  16190.56  40.34
726.8  39960.91  16318.60  40.84
728.1  39855.98  16461.98  41.30
729.5  39766.23  16581.52  41.70
730.8  39707.44  16684.88  42.02
732.1  39612.07  16761.17  42.31
733.4  39556.45  16836.89  42.56
734.7  39507.57  16913.36  42.81
736.0  39511.29  16996.66  43.02
737.3  39463.58  17054.91  43.22
738.6  39569.04  17183.82  43.43
739.9  39770.92  17334.67  43.59
741.2  39928.98  17474.91  43.76
742.5  40206.42  17651.95  43.90
743.8  40696.43  17915.59  44.02
745.1  41398.16  18279.86  44.16
746.4  42245.84  18707.42  44.28
747.7  43136.62  19171.38  44.44
749.0  43980.49  19666.84  44.72
750.3  44484.44  20007.16  44.98
751.6  44396.66  20077.22  45.22
752.9  43969.12  19937.81  45.35
754.2  43470.53  19749.60  45.43
755.4  42928.75  19508.20  45.44
756.7  42746.48  19436.67  45.47
758.0  42774.71  19458.49  45.49
759.3  43048.01  19600.88  45.53
760.6  43418.76  19782.64  45.56
761.9  43775.94  19949.92  45.57
763.1  43996.61  20072.86  45.62
764.4  44239.34  20206.49  45.68
765.7  44424.25  20313.80  45.73
767.0  44583.75  20404.17  45.77
768.2  44688.00  20485.69  45.84
769.5  44782.92  20540.54  45.87
770.8  44990.42  20661.91  45.93
772.0  45014.41  20713.20  46.01
773.3  45100.97  20778.24  46.07
774.6  45226.84  20862.25  46.13
775.8  45313.45  20943.96  46.22
777.1  45344.81  20984.22  46.28
778.4  45245.88  20975.77  46.36
779.6  45226.44  20992.49  46.42
780.9  45132.00  20981.33  46.49
782.1  44952.26  20907.13  46.51
783.4  44936.32  20938.67  46.60
784.6  44935.72  20955.45  46.63
785.9  45255.62  21091.04  46.60
787.1  45836.93  21385.86  46.66
788.4  46288.94  21723.05  46.93
789.6  46219.23  21855.40  47.29
790.9  45788.99  21749.65  47.50
792.1  45296.16  21532.51  47.54
793.4  44771.54  21319.60  47.62
794.6  44415.30  21210.07  47.75
795.8  44134.47  21111.50  47.83
797.1  43801.05  20976.68  47.89
798.3  43569.08  20884.00  47.93
799.5  43411.48  20854.75  48.04
800.8  43273.13  20798.57  48.06
802.0  43071.08  20752.83  48.18
803.2  42890.28  20696.78  48.26
804.5  42742.15  20676.27  48.37
805.7  42601.95  20629.84  48.42
806.9  42426.40  20577.89  48.50
808.1  42305.67  20547.47  48.57
809.4  42221.44  20510.71  48.58
810.6  42105.70  20469.54  48.61
811.8  42062.43  20460.41  48.64
813.0  42071.08  20457.30  48.63
814.2  42081.20  20460.90  48.62
815.4  42185.03  20528.86  48.66
816.6  42225.34  20542.44  48.65
817.9  42273.21  20594.56  48.72
819.1  42166.58  20550.41  48.74
820.3  42039.03  20478.96  48.71
821.5  41905.07  20406.49  48.70
822.7  41849.58  20354.07  48.64
823.9  41838.35  20335.70  48.61
825.1  41851.34  20301.33  48.51
826.3  41890.94  20278.93  48.41
827.5  41937.05  20241.23  48.27
828.7  42011.28  20211.14  48.11
829.9  42039.57  20185.45  48.02
831.0  42140.75  20175.73  47.88
832.2  42235.78  20162.11  47.74
833.4  42305.18  20155.25  47.64
834.6  42417.19  20156.88  47.52
835.8  42496.65  20163.78  47.45
837.0  42597.61  20188.77  47.39
838.1  42745.68  20243.13  47.36
839.3  42856.00  20267.64  47.29
840.5  42989.60  20308.31  47.24
841.7  43156.80  20356.95  47.17
842.9  43298.86  20396.86  47.11
844.0  43430.88  20441.98  47.07
845.2  43568.90  20495.84  47.04
846.4  43732.15  20553.75  47.00
847.5  43960.00  20645.81  46.96
848.7  44164.79  20745.05  46.97
849.9  44393.85  20876.36  47.03
851.0  44478.08  20941.59  47.08
852.2  44569.63  21003.74  47.13
853.3  44562.81  21011.10  47.15
854.5  44594.90  21024.11  47.14
855.6  44615.97  21034.25  47.15
856.8  44687.86  21054.08  47.11
857.9  44681.40  21059.00  47.13
859.1  44832.20  21119.68  47.11
860.2  44876.88  21116.71  47.05
861.4  44954.55  21134.16  47.01
862.5  45021.69  21174.57  47.03
863.7  45150.84  21216.35  46.99
864.8  45213.35  21215.27  46.92
865.9  45167.77  21186.25  46.91
867.1  45241.43  21236.38  46.94
868.2  45295.54  21231.08  46.87
869.3  45314.27  21225.20  46.84
870.5  45282.48  21185.70  46.79
871.6  45315.83  21191.90  46.76
872.7  45413.27  21211.52  46.71
873.9  45478.16  21206.19  46.63
875.0  45456.71  21177.22  46.59
876.1  45452.45  21181.88  46.60
877.2  45498.99  21157.15  46.50
878.3  45519.98  21158.23  46.48
879.4  45563.53  21128.23  46.37
880.5  45631.08  21126.14  46.30
881.7  45596.20  21086.69  46.25
882.8  45693.96  21098.71  46.17
883.9  45722.91  21137.10  46.23
885.0  45675.63  21129.56  46.26
886.1  45712.78  21095.82  46.15
887.2  45537.58  21040.74  46.21
888.3  45475.07  21014.87  46.21
889.4  45347.40  20930.59  46.16
890.5  45259.13  20865.18  46.10
891.6  45193.70  20804.68  46.03
892.7  45201.31  20773.06  45.96
893.8  45270.56  20741.66  45.82
894.9  45248.28  20697.10  45.74
896.0  45235.90  20671.40  45.70
897.0  45257.72  20653.72  45.64
898.1  45230.13  20631.87  45.62
899.2  45252.30  20612.76  45.55
900.3  45165.90  20530.30  45.46
901.4  45101.16  20472.76  45.39
902.4  45077.20  20437.52  45.34
903.5  45018.01  20382.81  45.28
904.6  45035.56  20345.09  45.18
905.7  45038.93  20337.56  45.16
906.7  44985.82  20288.74  45.10
907.8  45025.57  20222.28  44.91
908.9  44904.57  20161.87  44.90
909.9  44897.74  20128.98  44.83
911.0  44830.08  20046.53  44.72
912.1  44749.25  19962.43  44.61
913.1  44707.00  19891.73  44.49
914.2  44554.62  19768.96  44.37
915.2  44505.45  19700.28  44.26
916.3  44491.35  19655.12  44.18
917.3  44461.10  19566.52  44.01
918.4  44383.35  19454.60  43.83
919.4  44330.69  19380.07  43.72
920.5  44315.70  19288.18  43.52
921.5  44285.78  19234.31  43.43
922.6  44268.10  19103.15  43.15
923.6  44262.16  19035.89  43.01
924.7  44333.00  18948.67  42.74
925.7  44276.22  18850.06  42.57
926.7  44252.98  18767.47  42.41
927.8  44374.33  18722.04  42.19
928.8  44502.63  18673.87  41.96
929.9  44598.23  18617.07  41.74
930.9  44802.27  18609.00  41.54
931.9  45011.35  18556.56  41.23
932.9  45355.12  18567.02  40.94
934.0  45370.16  18476.15  40.72
935.0  45397.97  18377.56  40.48
936.0  45413.73  18220.77  40.12
937.0  45319.95  18094.68  39.93
938.1  45295.44  17933.43  39.59
939.1  45257.91  17795.52  39.32
940.1  45342.90  17716.31  39.07
941.1  45568.46  17672.95  38.78
942.1  45803.34  17628.14  38.49
943.1  45999.43  17562.72  38.18
944.1  46171.28  17527.34  37.96
945.2  46338.18  17410.35  37.57
946.2  46411.22  17329.67  37.34
947.2  46518.25  17221.65  37.02
948.2  46693.82  17141.92  36.71
949.2  46838.19  17050.15  36.40
950.2  46912.95  16914.33  36.05
951.2  46909.80  16789.47  35.79
952.2  47054.57  16698.88  35.49
953.2  47260.85  16605.38  35.14
954.2  47365.65  16526.22  34.89
955.2  47408.68  16396.91  34.59
956.2  47434.65  16256.15  34.27
957.2  47543.77  16182.12  34.04
958.2  47601.59  16103.11  33.83
959.2  47735.55  16095.00  33.72
960.1  47775.14  16005.61  33.50
961.1  47870.63  15977.76  33.38
962.1  47933.44  15924.38  33.22
963.1  48032.50  15897.73  33.10
964.1  48057.21  15890.82  33.07
965.1  48243.99  15857.53  32.87
966.1  48335.33  15882.27  32.86
967.0  48410.39  15860.32  32.76
968.0  48434.88  15862.25  32.75
969.0  48556.60  15850.27  32.64
970.0  48603.65  15895.15  32.70
971.0  48737.12  15852.28  32.53
971.9  48722.90  15842.62  32.52
972.9  48879.95  15863.86  32.45
973.9  48859.53  15939.04  32.62
974.9  49044.08  15936.86  32.49
975.8  49101.73  15969.89  32.52
976.8  49135.91  16018.66  32.60
977.8  49315.41  16009.46  32.46
978.8  49372.50  16067.06  32.54
979.7  49504.50  16056.57  32.43
981.4  50850.20  17122.24  33.67
985.3  50481.20  17172.35  34.02
989.3  50535.22  17285.00  34.20
993.3  50635.09  17463.38  34.49
997.2  50595.02  17609.41  34.80
1001.2  50545.04  17767.01  35.15
1005.2  50473.33  17968.96  35.60
1009.1  50535.74  18242.19  36.10
1013.1  50697.93  18551.79  36.59
1017.1  50843.90  18865.33  37.10
1021.0  50855.49  19136.69  37.63
1025.0  50816.26  19413.31  38.20
1029.0  50641.08  19634.79  38.77
1032.9  50496.42  19845.37  39.30
1036.9  50486.34  20123.34  39.86
1040.9  50614.23  20428.67  40.36
1044.8  50848.91  20741.75  40.79
1048.8  51055.33  21025.00  41.18
1052.7  51200.97  21269.43  41.54
1056.7  51265.76  21441.74  41.82
1060.7  51328.86  21568.18  42.02
1064.6  51364.29  21672.56  42.19
1068.6  51285.22  21680.96  42.28
1072.5  51205.93  21648.14  42.28
1076.5  51155.97  21609.35  42.24
1080.4  51154.95  21537.71  42.10
1084.4  51258.31  21472.73  41.89
1088.3  51367.47  21389.79  41.64
1092.3  51376.13  21210.21  41.28
1096.2  51342.58  21011.67  40.92
1100.2  51360.86  20831.17  40.56
1104.1  51244.60  20575.08  40.15
1108.1  51175.76  20344.74  39.75
1112.0  51059.75  20077.07  39.32
1116.0  50831.30  19750.99  38.86
1119.9  50653.13  19391.41  38.28
1123.9  50703.41  19044.37  37.56
1127.8  50649.60  18526.72  36.58
1131.8  50608.23  17860.01  35.29
1135.7  50617.81  17102.96  33.79
1139.6  50606.06  16286.14  32.18
1143.6  50555.26  15500.30  30.66
1147.5  50517.05  14825.63  29.35
1151.4  50365.69  14245.29  28.28
1155.4  50355.11  13858.02  27.52
1159.3  50376.78  13615.61  27.03
1163.2  50207.59  13388.93  26.67
1167.2  50161.80  13262.02  26.44
1171.1  50174.37  13186.07  26.28
1175.0  50101.08  13094.96  26.14
1179.0  50065.70  13011.62  25.99
1182.9  50165.17  12962.33  25.84
1186.8  50159.61  12897.99  25.71
1190.7  49934.95  12786.87  25.61
1194.7  49665.47  12689.89  25.55
1198.6  49438.62  12623.00  25.53
1202.5  49264.40  12587.53  25.55
1206.4  49122.14  12577.35  25.60
1210.3  49037.26  12580.04  25.65
1214.2  48930.30  12604.18  25.76
1218.2  48765.56  12633.09  25.91
1222.1  48630.48  12670.98  26.06
1226.0  48538.40  12726.57  26.22
1229.9  48450.48  12776.18  26.37
1233.8  48352.03  12812.06  26.50
1237.7  48317.50  12856.28  26.61
1241.6  48229.08  12885.07  26.72
1245.5  48061.09  12890.61  26.82
1249.4  47934.98  12897.47  26.91
1253.3  47803.87  12901.30  26.99
1257.2  47735.46  12908.98  27.04
1261.1  47624.11  12893.58  27.07
1265.0  47490.52  12852.06  27.06
1268.9  47304.07  12784.26  27.03
1272.8  47372.70  12779.40  26.98
1276.7  47590.81  12789.92  26.87
1280.6  47691.16  12742.55  26.72
1284.5  47615.01  12639.16  26.54
1288.4  47591.67  12535.69  26.34
1292.3  47467.75  12380.50  26.08
1296.2  47318.59  12201.24  25.79
1300.1  47148.87  11992.08  25.43
1303.9  46897.39  11741.09  25.04
1307.8  46639.44  11470.20  24.59
1311.7  46386.67  11175.85  24.09
1315.6  46123.85  10866.06  23.56
1319.5  45848.18  10529.52  22.97
1323.3  45606.50  10197.75  22.36
1327.2  45386.16  9871.26  21.75
1331.1  45132.53  9536.73  21.13
1335.0  44824.46  9205.09  20.54
1338.8  44600.56  8908.38  19.97
1342.7  44421.07  8635.19  19.44
1346.5  44042.02  8342.39  18.94
1350.4  43720.62  8091.75  18.51
1354.3  43279.60  7831.26  18.09
1358.1  42799.92  7567.91  17.68
1362.0  42533.76  7327.20  17.23
1365.8  42447.40  7093.55  16.71
1369.7  42569.31  6872.46  16.14
1373.5  42515.11  6580.23  15.48
1377.4  42239.08  6205.84  14.69
1381.2  42024.35  5790.40  13.78
1385.1  42007.68  5349.85  12.74
1389.0  41913.21  4885.59  11.66
1392.8  41686.58  4439.02  10.65
1396.6  41522.45  4049.59  9.75
1400.5  41297.26  3704.64  8.97
1404.3  41119.22  3420.06  8.32
1408.2  41089.83  3199.16  7.79
1412.0  41038.18  3024.03  7.37
1415.8  41063.56  2901.80  7.07
1419.6  41020.11  2797.80  6.82
1423.5  40984.07  2712.96  6.62
1427.3  40938.38  2651.29  6.48
1431.1  40915.35  2614.85  6.39
1434.9  40812.08  2577.96  6.32
1438.8  40755.58  2549.59  6.26
1442.6  40720.04  2535.72  6.23
1446.4  40579.53  2514.76  6.20
1450.2  40476.97  2502.52  6.18
1454.0  40349.16  2494.32  6.18
1457.8  40313.93  2497.27  6.19
1461.6  40291.52  2510.77  6.23
1465.4  40157.17  2518.36  6.27
1469.2  39958.10  2529.80  6.33
1473.0  39808.79  2555.55  6.42
1476.8  39739.71  2601.48  6.55
1480.7  39668.27  2654.28  6.69
1484.4  39532.92  2710.92  6.86
1488.2  39418.92  2777.04  7.04
