/*** Spectra Vista SIG Data ***/
name= RB.sig
comm= Averaged Ref/Tar of files: RB1,RB2,RB3
data=
346.4  468.20  87.91  18.78
347.9  473.76  88.27  18.63
349.5  521.04  93.19  17.88
351.1  558.48  92.35  16.54
352.6  585.06  93.19  15.93
354.2  625.05  92.07  14.73
355.7  673.50  100.58  14.93
357.3  724.71  104.95  14.48
358.8  751.43  102.52  13.64
360.4  798.47  104.59  13.10
361.9  821.87  105.40  12.82
363.5  851.78  108.96  12.79
365.1  887.68  107.73  12.14
366.6  918.37  110.48  12.03
368.2  973.68  108.33  11.13
369.7  1008.89  108.83  10.79
371.3  1073.36  110.63  10.31
372.8  1148.72  119.08  10.37
374.4  1191.49  114.37  9.60
375.9  1247.87  118.28  9.48
377.4  1278.23  120.56  9.43
379.0  1330.29  115.85  8.71
380.5  1360.26  115.30  8.48
382.1  1412.49  117.02  8.28
383.6  1460.03  113.78  7.79
385.2  1529.00  110.37  7.22
386.7  1608.26  117.68  7.32
388.3  1679.42  114.50  6.82
389.8  1759.55  127.00  7.22
391.3  1843.67  124.03  6.73
392.9  1897.62  133.90  7.06
394.4  1955.58  136.51  6.98
395.9  2019.02  141.93  7.03
397.5  2131.80  145.57  6.83
399.0  2240.25  148.32  6.62
400.6  2303.62  144.90  6.29
402.1  2342.64  140.35  5.99
403.6  2375.92  131.38  5.53
405.1  2451.81  132.23  5.39
406.7  2542.40  135.00  5.31
408.2  2650.73  144.34  5.45
409.7  2746.24  145.15  5.29
411.3  2843.51  152.69  5.37
412.8  2936.43  154.84  5.27
414.3  3034.90  164.80  5.43
415.8  3152.50  169.33  5.37
417.4  3253.58  174.74  5.37
418.9  3339.60  174.40  5.22
420.4  3424.70  174.14  5.08
421.9  3487.22  178.11  5.11
423.5  3546.87  175.28  4.94
425.0  3613.98  180.40  4.99
426.5  3695.85  179.74  4.86
428.0  3801.23  181.17  4.77
429.5  3926.30  179.07  4.56
431.1  4071.24  188.08  4.62
432.6  4225.66  196.10  4.64
434.1  4373.60  199.69  4.57
435.6  4514.36  204.34  4.53
437.1  4642.95  208.52  4.49
438.6  4769.06  213.79  4.48
440.1  4906.69  220.19  4.49
441.6  5042.30  221.87  4.40
443.1  5179.95  234.09  4.52
444.7  5318.34  237.28  4.46
446.2  5433.01  244.46  4.50
447.7  5551.25  251.13  4.52
449.2  5676.48  254.01  4.47
450.7  5788.64  257.09  4.44
452.2  5916.62  259.90  4.39
453.7  6028.91  262.24  4.35
455.2  6201.73  265.90  4.29
456.7  6390.56  272.92  4.27
458.2  6607.30  281.00  4.25
459.7  6823.25  290.97  4.26
461.2  7031.76  299.58  4.26
462.7  7219.07  305.01  4.23
464.2  7396.86  309.64  4.19
465.7  7583.22  322.68  4.26
467.2  7742.35  331.10  4.28
468.7  7912.00  334.67  4.23
470.2  8015.91  339.52  4.24
471.7  8177.13  350.87  4.29
473.2  8446.52  357.18  4.23
474.6  8688.33  358.25  4.12
476.1  8747.12  356.44  4.07
477.6  8779.39  356.27  4.06
479.1  8829.54  355.82  4.03
480.6  8916.06  356.45  4.00
482.1  9046.91  359.79  3.98
483.6  9204.08  364.34  3.96
485.1  9394.00  372.63  3.97
486.6  9626.34  376.51  3.91
488.0  9867.00  385.67  3.91
489.5  10130.90  393.41  3.88
491.0  10387.73  404.20  3.89
492.5  10649.88  416.02  3.91
494.0  10928.34  423.36  3.87
495.4  11158.95  434.50  3.89
496.9  11406.10  446.22  3.91
498.4  11649.48  459.01  3.94
499.9  11878.23  469.68  3.95
501.4  12101.58  477.43  3.95
502.8  12308.24  491.10  3.99
504.3  12497.40  500.40  4.00
505.8  12681.02  511.95  4.04
507.2  12808.72  517.55  4.04
508.7  12896.48  523.94  4.06
510.2  12964.78  529.86  4.09
511.6  13008.39  534.34  4.11
513.1  13093.74  538.56  4.11
514.6  13195.49  542.42  4.11
516.0  13281.41  548.30  4.13
517.5  13429.99  553.14  4.12
519.0  13603.01  560.38  4.12
520.5  13772.72  566.78  4.12
521.9  13993.28  577.49  4.13
523.4  14243.35  586.54  4.12
524.8  14493.24  596.59  4.12
526.3  14778.04  611.72  4.14
527.8  15074.01  626.65  4.16
529.2  15339.71  640.92  4.18
530.7  15629.94  651.51  4.17
532.1  15903.48  666.55  4.19
533.6  16214.37  678.00  4.18
535.0  16534.98  695.77  4.21
536.5  16856.03  712.66  4.23
538.0  17178.24  726.68  4.23
539.4  17501.02  746.29  4.26
540.9  17879.62  766.51  4.29
542.3  18237.67  786.05  4.31
543.8  18504.51  799.47  4.32
545.2  18600.74  804.55  4.33
546.6  18637.00  810.06  4.35
548.1  18690.38  817.69  4.37
549.5  18745.60  822.65  4.39
551.0  18790.92  829.90  4.42
552.4  18868.34  838.35  4.44
553.9  18922.09  851.56  4.50
555.3  18999.63  862.29  4.54
556.8  19143.87  873.88  4.56
558.2  19276.31  887.85  4.61
559.6  19441.66  906.89  4.66
561.1  19660.88  930.15  4.73
562.5  19883.82  957.01  4.81
564.0  20177.05  983.55  4.87
565.4  20444.07  1013.95  4.96
566.8  20774.24  1048.97  5.05
568.3  21077.79  1086.49  5.15
569.7  21403.31  1129.48  5.28
571.1  21706.83  1171.93  5.40
572.6  22010.94  1217.37  5.53
574.0  22299.75  1263.46  5.67
575.4  22570.31  1311.30  5.81
576.9  22820.49  1367.52  5.99
578.3  23040.88  1421.66  6.17
579.7  23243.15  1479.55  6.37
581.1  23410.31  1540.33  6.58
582.6  23592.46  1600.47  6.78
584.0  23735.52  1664.34  7.01
585.4  23971.18  1741.77  7.27
586.8  24286.87  1822.99  7.51
588.3  24642.54  1912.56  7.76
589.7  24935.04  1999.61  8.02
591.1  25126.37  2082.29  8.29
592.5  25213.30  2158.13  8.56
594.0  25248.06  2228.88  8.83
595.4  25246.58  2295.98  9.09
596.8  25248.80  2368.36  9.38
598.2  25256.70  2435.22  9.64
599.6  25254.00  2509.39  9.94
601.0  25321.45  2587.90  10.22
602.4  25392.58  2663.35  10.49
603.9  25508.50  2742.02  10.75
605.3  25652.08  2824.39  11.01
606.7  25770.60  2900.88  11.26
608.1  26003.60  2986.26  11.48
609.5  26249.20  3071.54  11.70
610.9  26543.12  3161.76  11.91
612.3  26820.62  3250.72  12.12
613.7  27191.20  3346.25  12.31
615.1  27470.34  3424.25  12.47
616.5  27748.85  3506.60  12.64
617.9  28163.94  3607.76  12.81
619.3  28559.37  3720.18  13.03
620.7  29021.55  3841.33  13.24
622.1  29524.34  3948.77  13.37
623.5  30070.32  4034.24  13.42
624.9  30686.25  4120.17  13.43
626.3  31117.56  4182.67  13.44
627.7  30854.43  4148.24  13.44
629.1  30617.27  4141.09  13.53
630.5  30534.25  4197.52  13.75
631.9  30583.88  4281.23  14.00
633.3  30636.73  4352.69  14.21
634.7  30802.72  4414.69  14.33
636.1  30887.16  4426.81  14.33
637.5  30991.21  4462.13  14.40
638.9  31137.59  4502.47  14.46
640.2  31275.86  4494.40  14.37
641.6  31334.94  4495.92  14.35
643.0  31307.82  4506.77  14.40
644.4  31297.86  4515.37  14.43
645.8  31223.60  4502.94  14.42
647.2  31327.01  4513.51  14.41
648.5  31378.61  4521.83  14.41
649.9  31215.99  4511.28  14.45
651.3  31061.55  4507.38  14.51
652.7  30880.50  4488.34  14.53
654.1  30705.72  4338.46  14.13
655.5  30448.41  4151.69  13.64
656.8  30219.54  3969.51  13.14
658.2  30347.48  3852.95  12.70
659.6  30667.01  3767.98  12.29
660.9  30915.41  3682.53  11.91
662.3  31175.28  3584.76  11.50
663.7  31418.10  3487.68  11.10
665.0  31622.76  3393.92  10.73
666.4  31821.65  3312.54  10.41
667.8  32088.83  3250.19  10.13
669.1  32304.87  3189.38  9.87
670.5  32567.66  3156.07  9.69
671.9  32723.64  3121.20  9.54
673.2  32957.22  3117.40  9.46
674.6  33165.65  3125.52  9.42
676.0  33416.99  3157.94  9.45
677.3  33670.84  3222.11  9.57
678.7  33959.63  3313.02  9.76
680.0  34360.72  3441.77  10.02
681.4  34770.40  3630.79  10.44
682.8  35166.95  3880.24  11.03
684.1  35575.02  4216.68  11.85
685.5  35948.61  4626.57  12.87
686.8  36307.14  5125.98  14.12
688.2  36654.12  5700.36  15.55
689.5  36792.82  6328.52  17.20
690.9  36894.22  7015.61  19.02
692.2  37000.50  7748.26  20.94
693.6  37086.31  8515.45  22.96
694.9  37102.94  9274.16  25.00
696.2  37172.03  10033.64  26.99
697.6  37238.58  10772.21  28.93
698.9  37321.68  11500.19  30.81
700.3  37412.04  12192.65  32.59
701.6  37521.51  12863.54  34.28
703.0  37648.39  13494.18  35.84
704.3  37727.46  14054.86  37.25
705.6  37779.39  14589.10  38.62
707.0  37853.11  15080.01  39.84
708.3  37804.36  15511.70  41.03
709.6  37779.31  15902.77  42.09
711.0  37700.05  16235.25  43.06
712.3  37603.29  16550.38  44.01
713.6  37599.66  16858.35  44.84
714.9  37564.50  17139.84  45.63
716.3  37606.65  17439.04  46.37
717.6  37655.10  17716.46  47.05
718.9  37643.31  17932.80  47.64
720.2  37519.65  18065.22  48.15
721.6  37437.79  18207.10  48.63
722.9  37295.06  18329.27  49.15
724.2  37099.21  18408.03  49.62
725.5  36957.59  18508.09  50.08
726.8  36833.83  18580.07  50.44
728.1  36764.75  18662.31  50.76
729.5  36694.32  18731.21  51.05
730.8  36660.60  18796.41  51.27
732.1  36590.42  18845.34  51.50
733.4  36549.03  18909.98  51.74
734.7  36509.02  18948.38  51.90
736.0  36510.50  19019.57  52.09
737.3  36452.29  19062.79  52.30
738.6  36538.42  19173.94  52.48
739.9  36706.85  19339.33  52.69
741.2  36841.35  19467.45  52.84
742.5  37078.82  19675.59  53.06
743.8  37494.19  19971.11  53.26
745.1  38118.44  20381.78  53.47
746.4  38876.11  20822.68  53.56
747.7  39639.96  21238.31  53.58
749.0  40400.48  21620.75  53.52
750.3  40850.46  21807.18  53.38
751.6  40764.46  21752.22  53.36
752.9  40356.61  21581.70  53.48
754.2  39863.99  21408.35  53.70
755.4  39350.05  21225.90  53.94
756.7  39155.03  21194.95  54.13
758.0  39142.09  21275.21  54.35
759.3  39351.46  21460.36  54.54
760.6  39645.76  21704.97  54.75
761.9  39928.94  21938.47  54.94
763.1  40078.15  22076.82  55.08
764.4  40287.45  22230.90  55.18
765.7  40433.25  22343.53  55.26
767.0  40515.07  22433.66  55.37
768.2  40595.52  22521.86  55.48
769.5  40644.33  22583.30  55.56
770.8  40787.04  22694.29  55.64
772.0  40799.41  22737.63  55.73
773.3  40833.29  22798.44  55.83
774.6  40907.98  22873.31  55.91
775.8  40955.53  22914.36  55.95
777.1  40964.33  22934.65  55.99
778.4  40867.87  22915.20  56.07
779.6  40816.98  22924.48  56.16
780.9  40688.00  22907.20  56.30
782.1  40484.72  22847.81  56.44
783.4  40464.32  22868.91  56.52
784.6  40463.12  22894.01  56.58
785.9  40670.74  23098.04  56.79
787.1  41171.80  23429.54  56.91
788.4  41528.97  23589.59  56.80
789.6  41482.13  23416.40  56.45
790.9  41134.16  23110.03  56.18
792.1  40655.28  22888.50  56.30
793.4  40180.32  22669.80  56.42
794.6  39846.60  22494.96  56.45
795.8  39587.54  22358.62  56.48
797.1  39290.10  22232.67  56.59
798.3  39054.26  22151.47  56.72
799.5  38943.25  22113.82  56.78
800.8  38778.22  22044.80  56.85
802.0  38618.88  21969.61  56.89
803.2  38465.20  21886.44  56.90
804.5  38332.71  21813.52  56.91
805.7  38219.65  21736.94  56.87
806.9  38073.35  21677.16  56.94
808.1  37984.05  21642.53  56.98
809.4  37906.28  21616.05  57.02
810.6  37824.15  21589.45  57.08
811.8  37796.29  21610.24  57.18
813.0  37827.58  21651.56  57.24
814.2  37840.50  21705.33  57.36
815.4  37955.24  21760.94  57.33
816.6  38027.91  21777.97  57.27
817.9  38102.35  21788.41  57.18
819.1  38072.96  21745.52  57.12
820.3  37949.69  21665.86  57.09
821.5  37894.61  21619.24  57.05
822.7  37866.54  21586.48  57.01
823.9  37906.28  21577.11  56.92
825.1  37943.15  21581.59  56.88
826.3  38020.73  21585.96  56.77
827.5  38108.05  21593.96  56.67
828.7  38176.32  21585.82  56.54
829.9  38262.68  21584.03  56.41
831.0  38386.63  21632.65  56.35
832.2  38533.16  21673.36  56.25
833.4  38634.36  21714.77  56.21
834.6  38746.88  21781.88  56.22
835.8  38872.58  21838.32  56.18
837.0  39026.76  21920.96  56.17
838.1  39200.00  22038.46  56.22
839.3  39334.99  22113.69  56.22
840.5  39499.16  22213.92  56.24
841.7  39675.29  22335.64  56.30
842.9  39834.34  22490.79  56.46
844.0  40002.80  22595.40  56.48
845.2  40188.33  22718.01  56.53
846.4  40315.24  22810.92  56.58
847.5  40575.08  22947.12  56.55
848.7  40794.29  23048.23  56.50
849.9  41043.27  23144.45  56.39
851.0  41176.72  23168.12  56.27
852.2  41283.01  23197.17  56.19
853.3  41336.03  23178.13  56.07
854.5  41385.60  23189.99  56.03
855.6  41408.01  23192.99  56.01
856.8  41491.09  23241.17  56.01
857.9  41535.42  23239.72  55.95
859.1  41657.80  23334.32  56.01
860.2  41711.76  23362.44  56.01
861.4  41789.90  23402.68  56.00
862.5  41857.52  23442.45  56.01
863.7  41978.22  23480.88  55.94
864.8  42001.40  23512.63  55.98
865.9  42003.19  23503.79  55.96
867.1  42077.89  23521.62  55.90
868.2  42118.25  23520.77  55.84
869.3  42153.63  23501.62  55.75
870.5  42092.46  23481.18  55.78
871.6  42122.53  23471.73  55.72
872.7  42223.14  23537.69  55.75
873.9  42262.83  23519.23  55.65
875.0  42247.20  23489.89  55.60
876.1  42225.11  23475.17  55.60
877.2  42279.84  23475.57  55.52
878.3  42302.12  23441.53  55.41
879.4  42284.06  23437.93  55.43
880.5  42343.92  23409.22  55.28
881.7  42326.05  23369.32  55.21
882.8  42351.34  23335.16  55.10
883.9  42430.09  23294.95  54.90
885.0  42357.32  23206.91  54.79
886.1  42357.47  23122.73  54.59
887.2  42241.92  22982.81  54.41
888.3  42147.85  22855.34  54.23
889.4  42045.32  22751.68  54.11
890.5  41945.29  22651.78  54.00
891.6  41864.40  22601.97  53.99
892.7  41844.69  22545.17  53.88
893.8  41881.85  22562.30  53.87
894.9  41879.31  22551.10  53.85
896.0  41812.69  22478.76  53.76
897.0  41850.92  22433.74  53.60
898.1  41821.61  22403.93  53.57
899.2  41852.54  22371.17  53.45
900.3  41747.94  22309.39  53.44
901.4  41622.41  22211.19  53.36
902.4  41658.53  22183.79  53.25
903.5  41604.82  22115.71  53.16
904.6  41550.72  22070.00  53.12
905.7  41565.54  22031.40  53.00
906.7  41536.49  21994.78  52.95
907.8  41558.34  21977.20  52.88
908.9  41493.73  21873.45  52.72
909.9  41451.58  21818.54  52.64
911.0  41358.23  21750.42  52.59
912.1  41297.17  21655.36  52.44
913.1  41189.72  21563.43  52.35
914.2  41099.85  21448.70  52.19
915.2  41068.89  21398.58  52.10
916.3  41034.15  21326.10  51.97
917.3  40975.74  21234.11  51.82
918.4  40862.80  21127.37  51.70
919.4  40836.29  21014.21  51.46
920.5  40782.84  20952.00  51.37
921.5  40833.45  20848.88  51.06
922.6  40729.18  20742.00  50.93
923.6  40739.49  20677.67  50.76
924.7  40774.75  20595.57  50.51
925.7  40746.72  20503.68  50.32
926.7  40808.40  20385.19  49.95
927.8  40839.01  20263.24  49.62
928.8  40966.59  20238.98  49.40
929.9  41048.46  20156.06  49.10
930.9  41217.18  20138.95  48.86
931.9  41378.61  20168.04  48.74
932.9  41679.25  20163.00  48.38
934.0  41702.58  20079.11  48.15
935.0  41757.18  19972.12  47.83
936.0  41670.71  19855.38  47.65
937.0  41632.50  19723.49  47.38
938.1  41580.55  19589.80  47.11
939.1  41508.45  19476.36  46.92
940.1  41591.64  19377.06  46.59
941.1  41779.29  19383.82  46.40
942.1  41991.60  19339.46  46.06
943.1  42156.63  19311.22  45.81
944.1  42391.18  19294.82  45.52
945.2  42445.20  19179.33  45.19
946.2  42493.04  19086.91  44.92
947.2  42572.63  18971.10  44.56
948.2  42750.54  18905.96  44.22
949.2  42846.38  18786.84  43.85
950.2  42880.60  18662.15  43.52
951.2  42968.52  18565.90  43.21
952.2  43001.40  18409.25  42.81
953.2  43164.71  18342.42  42.49
954.2  43310.48  18260.85  42.16
955.2  43368.34  18117.51  41.78
956.2  43301.73  18011.60  41.60
957.2  43392.87  17893.57  41.24
958.2  43492.10  17859.97  41.06
959.2  43506.45  17788.86  40.89
960.1  43588.22  17737.11  40.69
961.1  43692.83  17737.08  40.59
962.1  43658.44  17696.13  40.53
963.1  43782.00  17687.93  40.40
964.1  43817.42  17676.39  40.34
965.1  43908.74  17683.70  40.27
966.1  44007.38  17676.40  40.17
967.0  44141.86  17681.02  40.05
968.0  44131.86  17688.78  40.08
969.0  44255.20  17696.37  39.99
970.0  44255.36  17713.92  40.03
971.0  44316.83  17732.81  40.01
971.9  44400.90  17719.43  39.91
972.9  44577.14  17729.23  39.77
973.9  44494.78  17705.48  39.79
974.9  44573.29  17656.95  39.61
975.8  44702.44  17646.35  39.48
976.8  44666.28  17666.53  39.55
977.8  44950.93  17700.03  39.38
978.8  44877.90  17742.32  39.53
979.7  45104.10  17772.73  39.40
980.7  45212.81  17883.65  39.55
981.7  45433.99  17935.92  39.48
982.6  45657.51  18122.17  39.69
983.6  46147.45  18223.15  39.49
984.6  46551.05  18403.06  39.53
985.5  47031.84  18757.73  39.88
986.5  47664.14  18886.49  39.62
987.5  48852.12  19247.55  39.40
988.4  49722.20  19504.76  39.23
989.4  51183.38  19874.13  38.83
990.4  52549.20  20494.19  39.00
991.3  54023.93  20836.99  38.57
992.3  54777.10  21336.98  38.95
993.2  55874.36  21571.84  38.61
994.2  57686.85  21657.87  37.54
995.2  57633.14  21971.47  38.12
996.1  59292.71  21801.79  36.77
997.1  59931.56  22148.62  36.96
998.0  60640.20  21515.28  35.48
999.0  59258.53  21342.71  36.02
1000.0  60377.42  21150.85  35.03
1000.9  59810.48  21668.18  36.23
1001.9  59598.95  21244.80  35.65
1002.8  60212.52  21018.63  34.91
1003.8  59788.51  21296.93  35.62
1004.8  59326.80  20810.02  35.08
961.5  55398.21  20303.01  36.65
965.5  54418.85  20158.29  37.04
969.5  52458.23  19892.03  37.92
973.4  50487.36  19398.57  38.42
977.4  48611.32  18773.14  38.62
981.4  47578.80  18480.54  38.84
985.3  47203.20  18321.83  38.81
989.3  47137.31  18302.73  38.83
993.3  47133.16  18347.70  38.93
997.2  47029.21  18366.01  39.05
1001.2  46955.35  18467.50  39.33
1005.2  46914.32  18651.27  39.76
1009.1  47038.13  18927.01  40.24
1013.1  47236.75  19256.84  40.77
1017.1  47375.30  19570.61  41.31
1021.0  47429.61  19800.19  41.75
1025.0  47461.87  20027.36  42.20
1029.0  47354.18  20205.17  42.67
1032.9  47271.77  20406.79  43.17
1036.9  47308.70  20681.74  43.72
1040.9  47476.08  21001.10  44.24
1044.8  47747.63  21349.35  44.71
1048.8  47970.59  21658.64  45.15
1052.7  48104.60  21915.71  45.56
1056.7  48183.46  22100.88  45.87
1060.7  48250.82  22241.26  46.10
1064.6  48272.17  22356.62  46.31
1068.6  48190.54  22378.79  46.44
1072.5  48116.11  22364.62  46.48
1076.5  48076.67  22329.33  46.45
1080.4  48048.88  22267.36  46.34
1084.4  48150.59  22217.33  46.14
1088.3  48279.53  22137.24  45.85
1092.3  48252.92  21980.91  45.55
1096.2  48221.83  21806.41  45.22
1100.2  48245.69  21650.30  44.88
1104.1  48124.97  21425.26  44.52
1108.1  48059.38  21223.19  44.16
1112.0  47955.87  20974.19  43.74
1116.0  47754.46  20633.86  43.21
1119.9  47569.76  20248.77  42.57
1123.9  47623.80  19881.57  41.75
1127.8  47592.96  19351.04  40.66
1131.8  47556.42  18666.46  39.25
1135.7  47568.82  17890.20  37.61
1139.6  47554.30  17044.34  35.84
1143.6  47510.71  16236.31  34.17
1147.5  47481.98  15573.78  32.80
1151.4  47337.52  15029.55  31.75
1155.4  47322.86  14686.45  31.03
1159.3  47329.81  14478.55  30.59
1163.2  47159.49  14285.43  30.29
1167.2  47113.86  14177.70  30.09
1171.1  47117.13  14099.96  29.93
1175.0  47022.16  14007.61  29.79
1179.0  46962.63  13929.12  29.66
1182.9  47045.30  13887.38  29.52
1186.8  47019.62  13822.68  29.40
1190.7  46784.64  13693.09  29.27
1194.7  46508.35  13569.57  29.18
1198.6  46264.68  13486.94  29.15
1202.5  46100.54  13455.63  29.19
1206.4  45962.62  13454.04  29.27
1210.3  45829.98  13460.34  29.37
1214.2  45707.13  13482.10  29.50
1218.2  45554.16  13503.19  29.64
1222.1  45384.95  13536.67  29.83
1226.0  45257.55  13593.29  30.04
1229.9  45156.00  13645.38  30.22
1233.8  45033.17  13677.25  30.37
1237.7  44950.68  13717.27  30.52
1241.6  44841.64  13745.91  30.65
1245.5  44683.61  13743.54  30.76
1249.4  44538.65  13745.05  30.86
1253.3  44401.40  13743.50  30.95
1257.2  44324.52  13755.59  31.03
1261.1  44209.48  13748.94  31.10
1265.0  44086.55  13724.06  31.13
1268.9  43910.05  13659.31  31.11
1272.8  43969.80  13642.00  31.03
1276.7  44155.69  13661.75  30.94
1280.6  44249.88  13634.00  30.81
1284.5  44188.89  13520.24  30.60
1288.4  44167.03  13409.24  30.36
1292.3  44060.50  13255.92  30.09
1296.2  43934.23  13068.81  29.75
1300.1  43787.98  12849.04  29.34
1303.9  43564.57  12581.56  28.88
1307.8  43339.22  12300.27  28.38
1311.7  43109.06  11998.92  27.83
1315.6  42877.90  11680.12  27.24
1319.5  42633.84  11343.07  26.61
1323.3  42417.44  11000.47  25.93
1327.2  42218.70  10653.97  25.24
1331.1  42002.86  10300.16  24.52
1335.0  41739.72  9947.62  23.83
1338.8  41543.11  9630.17  23.18
1342.7  41389.31  9329.00  22.54
1346.5  41042.00  8998.44  21.92
1350.4  40741.74  8703.81  21.36
1354.3  40332.24  8393.38  20.81
1358.1  39895.31  8088.41  20.27
1362.0  39644.33  7842.75  19.78
1365.8  39567.12  7626.75  19.28
1369.7  39683.68  7412.15  18.68
1373.5  39615.26  7093.01  17.90
1377.4  39354.79  6647.35  16.89
1381.2  39167.92  6147.99  15.70
