/*** Spectra Vista SIG Data ***/
name= RS1.sig
comm= SIG file reprocesed for matching/overlap;Averaged Ref/Tar of files: RD6S1,RD6S2,RD6S3
data=
346.4  350.35  51.17  14.61
347.9  381.21  50.62  13.28
349.5  410.28  51.17  12.47
351.1  433.68  51.58  11.89
352.6  475.96  56.93  11.96
354.2  499.06  58.25  11.67
355.7  540.48  61.29  11.34
357.3  582.54  61.95  10.63
358.8  588.91  60.82  10.33
360.4  636.67  65.19  10.24
361.9  668.64  62.69  9.38
363.5  692.50  65.10  9.40
365.1  712.57  67.04  9.41
366.6  747.47  64.91  8.68
368.2  792.37  65.14  8.22
369.7  840.74  67.04  7.97
371.3  898.85  68.93  7.67
372.8  941.22  73.04  7.76
374.4  986.23  73.65  7.47
375.9  1017.83  74.37  7.31
377.4  1052.18  71.99  6.84
379.0  1086.82  72.99  6.72
380.5  1123.29  72.63  6.47
382.1  1153.93  74.46  6.45
383.6  1194.95  75.60  6.33
385.2  1251.25  73.88  5.90
386.7  1299.60  75.81  5.83
388.3  1372.34  75.19  5.48
389.8  1424.66  81.99  5.76
391.3  1483.01  82.62  5.57
392.9  1530.61  83.45  5.45
394.4  1562.39  90.41  5.79
395.9  1621.81  91.27  5.63
397.5  1711.90  97.11  5.67
399.0  1784.48  93.73  5.25
400.6  1838.09  91.50  4.98
402.1  1856.31  87.20  4.70
403.6  1888.03  90.15  4.77
405.1  1944.54  89.88  4.62
406.7  2010.40  90.79  4.52
408.2  2079.37  93.11  4.48
409.7  2148.16  95.72  4.46
411.3  2213.53  97.62  4.41
412.8  2271.65  101.28  4.46
414.3  2341.03  100.19  4.28
415.8  2417.50  106.17  4.39
417.4  2490.79  107.94  4.33
418.9  2548.98  109.97  4.31
420.4  2593.45  110.83  4.27
421.9  2640.22  108.25  4.10
423.5  2679.41  111.61  4.17
425.0  2722.85  112.82  4.14
426.5  2778.88  110.51  3.98
428.0  2849.90  111.52  3.91
429.5  2939.79  112.44  3.82
431.1  3042.79  116.10  3.82
432.6  3149.06  119.58  3.80
434.1  3259.99  123.08  3.78
435.6  3346.58  126.55  3.78
437.1  3441.75  129.87  3.77
438.6  3531.11  130.87  3.71
440.1  3611.12  135.07  3.74
441.6  3703.62  137.37  3.71
443.1  3787.76  141.35  3.73
444.7  3873.68  143.44  3.70
446.2  3941.61  144.12  3.66
447.7  4009.71  148.15  3.69
449.2  4084.56  149.04  3.65
450.7  4145.44  148.51  3.58
452.2  4210.01  147.64  3.51
453.7  4291.20  150.86  3.52
455.2  4393.26  152.45  3.47
456.7  4515.28  156.40  3.46
458.2  4654.47  160.65  3.45
459.7  4795.00  162.87  3.40
461.2  4934.06  170.38  3.45
462.7  5054.96  173.39  3.43
464.2  5177.07  179.34  3.46
465.7  5301.12  182.99  3.45
467.2  5404.44  187.11  3.46
468.7  5508.00  193.20  3.51
470.2  5586.81  199.75  3.58
471.7  5702.38  207.42  3.64
473.2  5885.72  205.26  3.49
474.6  6027.25  203.17  3.37
476.1  6074.86  205.22  3.38
477.6  6093.70  207.10  3.40
479.1  6122.60  207.79  3.39
480.6  6163.05  208.63  3.39
482.1  6243.66  209.51  3.36
483.6  6332.42  213.20  3.37
485.1  6458.38  215.17  3.33
486.6  6604.00  217.03  3.29
488.0  6753.50  222.84  3.30
489.5  6913.82  227.61  3.29
491.0  7075.65  233.70  3.30
492.5  7238.97  237.71  3.28
494.0  7404.10  244.05  3.30
495.4  7549.58  249.15  3.30
496.9  7695.36  254.95  3.31
498.4  7836.28  261.66  3.34
499.9  7979.51  265.41  3.33
501.4  8103.78  271.06  3.34
502.8  8223.51  275.68  3.35
504.3  8333.10  281.40  3.38
505.8  8444.88  284.60  3.37
507.2  8514.20  287.96  3.38
508.7  8565.01  291.44  3.40
510.2  8590.79  294.55  3.43
511.6  8618.22  295.57  3.43
513.1  8670.26  296.08  3.41
514.6  8732.77  299.47  3.43
516.0  8783.27  300.53  3.42
517.5  8880.96  304.36  3.43
519.0  8994.65  308.46  3.43
520.5  9112.66  312.47  3.43
521.9  9263.01  318.20  3.44
523.4  9434.43  325.06  3.45
524.8  9608.27  333.49  3.47
526.3  9802.81  341.00  3.48
527.8  10000.35  349.21  3.49
529.2  10181.33  357.22  3.51
530.7  10383.39  366.15  3.53
532.1  10567.68  374.17  3.54
533.6  10773.42  383.86  3.56
535.0  10980.59  392.93  3.58
536.5  11186.70  402.67  3.60
538.0  11401.56  413.75  3.63
539.4  11601.83  425.18  3.66
540.9  11838.18  436.25  3.69
542.3  12056.36  443.09  3.68
543.8  12205.88  450.04  3.69
545.2  12241.58  452.44  3.70
546.6  12248.30  456.30  3.73
548.1  12260.70  460.71  3.76
549.5  12261.13  462.38  3.77
551.0  12260.01  464.58  3.79
552.4  12274.54  468.50  3.82
553.9  12279.40  471.84  3.84
555.3  12300.80  476.30  3.87
556.8  12360.66  481.15  3.89
558.2  12414.09  487.46  3.93
559.6  12499.51  493.99  3.95
561.1  12612.44  501.59  3.98
562.5  12742.28  511.30  4.01
564.0  12915.37  524.21  4.06
565.4  13070.62  537.17  4.11
566.8  13269.64  551.28  4.15
568.3  13461.39  566.94  4.21
569.7  13659.35  581.94  4.26
571.1  13859.91  597.25  4.31
572.6  14064.03  614.63  4.37
574.0  14250.23  632.28  4.44
575.4  14437.41  650.14  4.50
576.9  14612.77  668.17  4.57
578.3  14771.90  685.93  4.64
579.7  14927.19  704.53  4.72
581.1  15049.34  722.24  4.80
582.6  15179.87  742.80  4.89
584.0  15306.40  762.35  4.98
585.4  15471.50  782.78  5.06
586.8  15703.41  804.43  5.12
588.3  15959.97  828.51  5.19
589.7  16164.72  848.48  5.25
591.1  16308.26  867.00  5.32
592.5  16380.50  882.23  5.39
594.0  16416.90  896.44  5.46
595.4  16426.30  912.26  5.55
596.8  16438.21  930.93  5.66
598.2  16446.40  948.37  5.77
599.6  16446.15  961.03  5.84
601.0  16488.64  980.50  5.95
602.4  16524.83  998.83  6.04
603.9  16595.00  1017.94  6.13
605.3  16677.56  1041.19  6.24
606.7  16748.10  1065.96  6.36
608.1  16880.08  1093.33  6.48
609.5  17023.96  1126.03  6.61
610.9  17200.20  1159.24  6.74
612.3  17363.60  1198.08  6.90
613.7  17583.26  1236.23  7.03
615.1  17730.09  1274.61  7.19
616.5  17885.32  1314.60  7.35
617.9  18120.27  1363.51  7.52
619.3  18343.55  1414.33  7.71
620.7  18613.68  1468.90  7.89
622.1  18877.69  1518.20  8.04
623.5  19168.37  1556.63  8.12
624.9  19495.88  1591.64  8.16
626.3  19705.80  1616.02  8.20
627.7  19502.63  1617.32  8.29
629.1  19316.59  1635.77  8.47
630.5  19234.56  1670.04  8.68
631.9  19243.16  1719.76  8.94
633.3  19227.78  1770.16  9.21
634.7  19307.14  1827.12  9.46
636.1  19335.07  1878.23  9.71
637.5  19378.14  1925.60  9.94
638.9  19457.31  1978.83  10.17
640.2  19514.53  2032.45  10.42
641.6  19531.98  2079.17  10.64
643.0  19504.65  2122.23  10.88
644.4  19507.28  2164.76  11.10
645.8  19449.04  2199.31  11.31
647.2  19526.59  2248.69  11.52
648.5  19579.91  2296.43  11.73
649.9  19492.88  2327.47  11.94
651.3  19428.45  2366.40  12.18
652.7  19344.30  2398.19  12.40
654.1  19217.52  2388.33  12.43
655.5  19076.42  2360.19  12.37
656.8  18936.77  2335.39  12.33
658.2  19052.33  2348.54  12.33
659.6  19274.42  2379.03  12.34
660.9  19463.87  2407.35  12.37
662.3  19650.11  2441.02  12.42
663.7  19826.10  2472.82  12.47
665.0  19986.79  2509.00  12.55
666.4  20146.14  2546.28  12.64
667.8  20346.56  2596.15  12.76
669.1  20529.76  2646.78  12.89
670.5  20738.52  2705.91  13.05
671.9  20872.26  2766.65  13.26
673.2  21059.41  2842.41  13.50
674.6  21230.21  2924.68  13.78
676.0  21420.32  3021.29  14.10
677.3  21614.12  3127.97  14.47
678.7  21817.38  3240.20  14.85
680.0  22089.50  3371.92  15.26
681.4  22373.47  3511.04  15.69
682.8  22657.86  3650.47  16.11
684.1  22942.53  3797.04  16.55
685.5  23200.94  3936.42  16.97
686.8  23448.72  4074.58  17.38
688.2  23672.40  4197.19  17.73
689.5  23749.65  4293.21  18.08
690.9  23825.77  4389.71  18.42
692.2  23869.28  4475.59  18.75
693.6  23926.69  4566.67  19.09
694.9  23920.11  4639.64  19.40
696.2  23942.14  4717.19  19.70
697.6  23961.85  4793.94  20.01
698.9  23992.32  4871.68  20.31
700.3  24038.01  4953.03  20.60
701.6  24084.68  5042.50  20.94
703.0  24137.54  5127.08  21.24
704.3  24141.49  5194.05  21.52
705.6  24144.66  5263.43  21.80
707.0  24151.61  5334.09  22.09
708.3  24094.31  5388.43  22.36
709.6  24038.25  5439.65  22.63
711.0  23936.43  5482.14  22.90
712.3  23827.16  5523.46  23.18
713.6  23789.01  5579.53  23.45
714.9  23716.29  5626.97  23.73
716.3  23686.39  5680.83  23.98
717.6  23672.15  5745.29  24.27
718.9  23614.96  5788.77  24.51
720.2  23494.56  5814.51  24.75
721.6  23399.74  5844.85  24.98
722.9  23270.63  5872.96  25.24
724.2  23091.17  5889.47  25.51
725.5  22957.02  5916.01  25.77
726.8  22832.78  5937.49  26.00
728.1  22750.67  5967.44  26.23
729.5  22685.44  6005.21  26.47
730.8  22628.18  6039.11  26.69
732.1  22547.20  6072.75  26.93
733.4  22493.78  6114.37  27.18
734.7  22430.29  6146.57  27.40
736.0  22412.65  6196.66  27.65
737.3  22354.35  6238.06  27.91
738.6  22392.88  6305.85  28.16
739.9  22486.41  6397.92  28.45
741.2  22557.99  6472.65  28.69
742.5  22690.46  6579.32  29.00
743.8  22954.18  6724.03  29.29
745.1  23356.68  6907.54  29.57
746.4  23838.13  7110.62  29.83
747.7  24340.83  7318.96  30.07
749.0  24845.90  7516.63  30.25
750.3  25109.11  7638.19  30.42
751.6  25056.94  7663.24  30.58
752.9  24812.33  7641.74  30.80
754.2  24511.78  7611.71  31.05
755.4  24190.11  7579.39  31.33
756.7  24095.29  7616.20  31.61
758.0  24119.44  7694.13  31.90
759.3  24282.67  7817.54  32.19
760.6  24509.10  7960.57  32.48
761.9  24709.31  8095.52  32.76
763.1  24854.26  8205.92  33.02
764.4  25021.13  8324.79  33.27
765.7  25148.50  8428.12  33.51
767.0  25255.87  8526.17  33.76
768.2  25351.20  8617.73  33.99
769.5  25424.49  8703.69  34.23
770.8  25570.26  8807.71  34.45
772.0  25587.81  8880.46  34.71
773.3  25669.17  8965.84  34.93
774.6  25760.75  9064.22  35.19
775.8  25826.13  9146.91  35.42
777.1  25851.30  9214.73  35.65
778.4  25836.83  9265.24  35.86
779.6  25861.37  9333.23  36.09
780.9  25820.00  9383.20  36.34
782.1  25728.02  9411.55  36.58
783.4  25750.40  9474.26  36.79
784.6  25767.74  9546.11  37.05
785.9  25975.04  9694.26  37.32
787.1  26352.59  9903.64  37.58
788.4  26662.70  10057.68  37.72
789.6  26677.46  10075.76  37.77
790.9  26422.83  10001.75  37.85
792.1  26144.60  9947.07  38.05
793.4  25865.12  9899.39  38.27
794.6  25676.57  9878.75  38.47
795.8  25513.36  9875.33  38.71
797.1  25350.08  9864.01  38.91
798.3  25228.50  9876.02  39.15
799.5  25169.97  9903.67  39.35
800.8  25099.23  9923.74  39.54
802.0  25011.42  9938.27  39.73
803.2  24918.76  9944.60  39.91
804.5  24860.18  9960.96  40.07
805.7  24781.04  9979.95  40.27
806.9  24699.71  9983.36  40.42
808.1  24647.73  10014.62  40.63
809.4  24609.13  10043.00  40.81
810.6  24558.63  10062.48  40.97
811.8  24538.32  10106.14  41.19
813.0  24560.28  10149.71  41.33
814.2  24583.06  10201.59  41.50
815.4  24644.79  10263.17  41.64
816.6  24675.27  10305.65  41.77
817.9  24704.84  10338.09  41.85
819.1  24672.89  10338.31  41.90
820.3  24583.02  10327.44  42.01
821.5  24511.70  10319.56  42.10
822.7  24474.49  10331.93  42.22
823.9  24466.74  10356.44  42.33
825.1  24483.13  10364.14  42.33
826.3  24493.16  10381.73  42.39
827.5  24511.03  10402.25  42.44
828.7  24560.16  10417.17  42.41
829.9  24556.61  10429.87  42.47
831.0  24631.50  10456.08  42.45
832.2  24684.15  10489.99  42.50
833.4  24732.69  10515.27  42.52
834.6  24771.09  10551.88  42.60
835.8  24806.25  10583.06  42.66
837.0  24848.21  10630.89  42.78
838.1  24942.61  10690.35  42.86
839.3  24987.97  10733.48  42.95
840.5  25056.73  10784.54  43.04
841.7  25139.84  10843.48  43.13
842.9  25202.72  10916.36  43.31
844.0  25272.39  10966.40  43.39
845.2  25356.92  11026.38  43.48
846.4  25406.55  11077.02  43.60
847.5  25535.27  11157.41  43.69
848.7  25649.51  11221.52  43.75
849.9  25759.43  11288.52  43.82
851.0  25787.85  11312.34  43.87
852.2  25836.49  11346.10  43.92
853.3  25835.02  11351.76  43.94
854.5  25803.13  11362.68  44.04
855.6  25784.28  11386.25  44.16
856.8  25811.14  11414.76  44.22
857.9  25796.36  11432.61  44.32
859.1  25866.40  11487.36  44.41
860.2  25870.46  11513.33  44.50
861.4  25883.89  11534.09  44.56
862.5  25913.95  11564.09  44.62
863.7  25967.63  11601.04  44.68
864.8  25978.23  11622.87  44.74
865.9  25934.02  11627.74  44.84
867.1  25972.57  11649.42  44.85
868.2  25960.64  11664.91  44.93
869.3  25983.57  11675.55  44.93
870.5  25945.69  11666.68  44.97
871.6  25952.82  11679.25  45.00
872.7  25988.86  11710.89  45.06
873.9  26010.48  11731.70  45.10
875.0  25998.57  11714.09  45.06
876.1  25976.68  11708.83  45.07
877.2  25992.15  11722.64  45.10
878.3  25997.76  11711.20  45.05
879.4  26016.59  11711.93  45.02
880.5  26032.32  11719.51  45.02
881.7  26038.68  11711.14  44.98
882.8  26051.76  11716.97  44.98
883.9  26088.59  11714.62  44.90
885.0  26049.66  11680.35  44.84
886.1  26068.54  11668.14  44.76
887.2  25979.14  11601.56  44.66
888.3  25929.87  11564.95  44.60
889.4  25867.81  11513.80  44.51
890.5  25830.84  11484.98  44.46
891.6  25777.28  11451.96  44.43
892.7  25812.52  11440.87  44.32
893.8  25792.32  11445.28  44.37
894.9  25833.34  11438.67  44.28
896.0  25797.95  11408.86  44.22
897.0  25823.30  11397.83  44.14
898.1  25837.83  11386.48  44.07
899.2  25853.12  11369.27  43.98
900.3  25827.20  11324.34  43.85
901.4  25755.93  11288.49  43.83
902.4  25796.28  11286.35  43.75
903.5  25760.57  11244.84  43.65
904.6  25773.48  11237.41  43.60
905.7  25786.56  11212.72  43.48
906.7  25778.44  11182.38  43.38
907.8  25791.16  11177.78  43.34
908.9  25756.23  11132.37  43.22
909.9  25738.83  11099.96  43.13
911.0  25715.27  11058.29  43.00
912.1  25708.69  11011.27  42.83
913.1  25683.06  10949.01  42.63
914.2  25568.28  10891.79  42.60
915.2  25594.38  10853.80  42.41
916.3  25582.28  10811.12  42.26
917.3  25579.53  10754.45  42.04
918.4  25529.08  10664.76  41.77
919.4  25526.52  10594.55  41.50
920.5  25540.93  10551.75  41.31
921.5  25532.64  10484.24  41.06
922.6  25509.72  10387.85  40.72
923.6  25552.64  10326.77  40.41
924.7  25558.13  10254.78  40.12
925.7  25559.01  10167.85  39.78
926.7  25571.07  10079.97  39.42
927.8  25622.74  9999.37  39.03
928.8  25737.00  9924.78  38.56
929.9  25798.01  9853.44  38.19
930.9  25912.02  9797.74  37.81
931.9  26063.45  9733.43  37.35
932.9  26272.00  9687.55  36.87
934.0  26311.65  9591.16  36.45
935.0  26328.00  9483.34  36.02
936.0  26313.67  9368.60  35.60
937.0  26305.79  9255.10  35.18
938.1  26273.03  9130.76  34.75
939.1  26282.27  9018.73  34.31
940.1  26307.38  8913.19  33.88
941.1  26474.98  8841.40  33.40
942.1  26613.43  8767.41  32.94
943.1  26709.35  8690.90  32.54
944.1  26891.46  8614.52  32.03
945.2  26931.87  8497.72  31.55
946.2  27005.05  8379.88  31.03
947.2  27050.94  8261.29  30.54
948.2  27161.01  8155.78  30.03
949.2  27258.97  8046.24  29.52
950.2  27257.00  7912.96  29.03
951.2  27381.90  7786.41  28.44
952.2  27427.92  7658.90  27.92
953.2  27549.11  7559.37  27.44
954.2  27670.16  7456.10  26.95
955.2  27683.23  7353.52  26.56
956.2  27678.04  7244.09  26.17
957.2  27683.31  7158.71  25.86
958.2  27771.67  7086.15  25.52
959.2  27855.45  7040.73  25.28
960.1  27895.78  6992.95  25.07
961.1  27947.74  6957.20  24.89
962.1  27921.09  6912.44  24.76
963.1  28038.72  6889.58  24.57
964.1  28081.62  6869.58  24.46
965.1  28159.91  6875.01  24.41
966.1  28230.04  6852.59  24.27
967.0  28291.66  6847.18  24.20
968.0  28354.15  6825.23  24.07
969.0  28355.00  6819.47  24.05
970.0  28440.42  6824.82  24.00
971.0  28447.07  6821.83  23.98
971.9  28529.94  6808.14  23.86
972.9  28619.85  6818.94  23.83
973.9  28640.46  6795.32  23.73
974.9  28629.25  6792.38  23.73
975.8  28737.28  6789.10  23.62
976.8  28722.61  6809.43  23.71
977.8  28846.97  6821.75  23.65
978.8  28789.28  6780.49  23.55
979.7  28914.30  6827.95  23.61
981.4  29806.10  6428.02  21.57
985.3  29606.90  6477.33  21.88
989.3  29665.19  6625.09  22.33
993.3  29713.32  6794.34  22.87
997.2  29668.74  6921.73  23.33
1001.2  29627.00  7076.03  23.88
1005.2  29568.23  7230.28  24.45
1009.1  29600.49  7404.85  25.02
1013.1  29702.49  7641.44  25.73
1017.1  29789.49  7885.28  26.47
1021.0  29789.99  8089.03  27.15
1025.0  29760.59  8318.15  27.95
1029.0  29636.30  8534.04  28.80
1032.9  29533.53  8735.87  29.58
1036.9  29509.70  8964.07  30.38
1040.9  29556.91  9218.54  31.19
1044.8  29679.34  9476.94  31.93
1048.8  29786.37  9720.85  32.64
1052.7  29868.84  9924.13  33.23
1056.7  29898.31  10073.59  33.69
1060.7  29913.73  10196.13  34.09
1064.6  29918.21  10294.74  34.41
1068.6  29859.11  10317.12  34.55
1072.5  29814.52  10293.43  34.52
1076.5  29798.83  10252.60  34.41
1080.4  29797.49  10179.08  34.16
1084.4  29858.05  10083.42  33.77
1088.3  29928.60  9973.39  33.32
1092.3  29919.24  9777.97  32.68
1096.2  29930.07  9575.85  31.99
1100.2  29956.02  9411.68  31.42
1104.1  29873.92  9191.03  30.77
1108.1  29858.25  8970.55  30.04
1112.0  29809.22  8737.58  29.31
1116.0  29674.06  8465.28  28.53
1119.9  29580.84  8159.87  27.58
1123.9  29636.88  7828.47  26.41
1127.8  29621.76  7377.92  24.91
1131.8  29615.13  6837.68  23.09
1135.7  29658.37  6249.86  21.07
1139.6  29649.41  5657.44  19.08
1143.6  29635.32  5169.69  17.44
1147.5  29635.02  4804.90  16.21
1151.4  29535.85  4512.58  15.28
1155.4  29547.88  4331.78  14.66
1159.3  29582.50  4222.61  14.27
1163.2  29498.44  4129.88  14.00
1167.2  29505.90  4085.16  13.85
1171.1  29517.01  4040.08  13.69
1175.0  29484.53  3997.37  13.56
1179.0  29486.15  3965.04  13.45
1182.9  29537.81  3943.95  13.35
1186.8  29538.86  3919.46  13.27
1190.7  29410.97  3875.51  13.18
1194.7  29255.48  3835.13  13.11
1198.6  29133.72  3808.04  13.07
1202.5  29044.69  3794.79  13.07
1206.4  28972.03  3788.67  13.08
1210.3  28920.11  3789.59  13.10
1214.2  28863.76  3793.49  13.14
1218.2  28763.18  3792.58  13.19
1222.1  28692.28  3800.09  13.24
1226.0  28656.56  3819.58  13.33
1229.9  28600.92  3834.02  13.41
1233.8  28545.33  3841.74  13.46
1237.7  28520.81  3847.21  13.49
1241.6  28465.46  3858.00  13.55
1245.5  28370.21  3859.83  13.61
1249.4  28299.76  3861.56  13.65
1253.3  28232.22  3865.64  13.69
1257.2  28191.00  3868.08  13.72
1261.1  28130.65  3860.78  13.72
1265.0  28057.45  3852.04  13.73
1268.9  27949.80  3832.03  13.71
1272.8  27989.85  3824.70  13.66
1276.7  28109.94  3817.44  13.58
1280.6  28175.48  3785.60  13.44
1284.5  28132.96  3738.53  13.29
1288.4  28112.11  3688.93  13.12
1292.3  28036.25  3626.33  12.93
1296.2  27954.20  3553.53  12.71
1300.1  27848.52  3472.47  12.47
1303.9  27706.57  3380.40  12.20
1307.8  27559.31  3280.19  11.90
1311.7  27397.23  3180.89  11.61
1315.6  27238.78  3084.17  11.32
1319.5  27066.08  2976.81  11.00
1323.3  26913.00  2875.02  10.68
1327.2  26776.06  2782.77  10.39
1331.1  26621.95  2687.29  10.09
1335.0  26429.02  2592.72  9.81
1338.8  26290.11  2513.25  9.56
1342.7  26169.42  2448.70  9.36
1346.5  25929.13  2377.47  9.17
1350.4  25728.90  2313.34  8.99
1354.3  25457.85  2246.80  8.83
1358.1  25158.95  2180.16  8.67
1362.0  24980.59  2122.48  8.50
1365.8  24927.82  2072.89  8.32
1369.7  24996.19  2037.06  8.15
1373.5  24961.93  1988.80  7.97
1377.4  24802.90  1914.34  7.72
1381.2  24660.90  1825.01  7.40
1385.1  24643.85  1743.77  7.08
1389.0  24592.75  1665.35  6.77
1392.8  24461.78  1581.28  6.46
1396.6  24365.22  1497.28  6.15
1400.5  24231.60  1426.07  5.89
1404.3  24125.27  1369.33  5.68
1408.2  24097.32  1326.82  5.51
1412.0  24070.61  1286.92  5.35
1415.8  24101.54  1254.77  5.21
1419.6  24084.23  1231.63  5.11
1423.5  24070.46  1207.33  5.02
1427.3  24053.34  1195.50  4.97
1431.1  24042.83  1189.63  4.95
1434.9  23983.10  1172.64  4.89
1438.8  23944.05  1165.99  4.87
1442.6  23927.04  1159.39  4.85
1446.4  23856.75  1148.66  4.81
1450.2  23800.39  1142.87  4.80
1454.0  23730.24  1138.48  4.80
1457.8  23714.21  1139.53  4.81
1461.6  23699.02  1136.22  4.79
1465.4  23623.88  1136.98  4.81
1469.2  23507.58  1134.47  4.83
1473.0  23416.67  1133.19  4.84
1476.8  23385.95  1141.28  4.88
1480.7  23341.52  1150.89  4.93
1484.4  23269.68  1162.04  4.99
1488.2  23205.84  1175.72  5.07
1492.0  23119.76  1193.09  5.16
1495.8  23050.30  1204.24  5.22
1499.6  22974.60  1212.43  5.28
1503.4  22886.86  1215.69  5.31
1507.2  22817.82  1219.51  5.34
1510.9  22736.47  1223.05  5.38
1514.7  22640.13  1220.95  5.39
1518.5  22563.41  1225.91  5.43
1522.3  22469.97  1229.51  5.47
1526.0  22400.45  1230.18  5.49
1529.8  22366.84  1239.16  5.54
1533.6  22289.14  1241.21  5.57
1537.3  22206.85  1242.12  5.59
1541.1  22117.21  1255.17  5.68
