/*** Spectra Vista SIG Data ***/
name= GB.sig
comm= Averaged Ref/Tar of files: GD2B1,GD2B2,GD2B3
data=
346.4  509.60  167.21  32.81
347.9  549.06  170.99  31.14
349.5  608.40  174.72  28.72
351.1  655.20  175.76  26.83
352.6  708.40  176.58  24.93
354.2  752.68  187.62  24.93
355.7  818.30  191.39  23.39
357.3  873.81  201.69  23.08
358.8  891.23  209.70  23.53
360.4  967.31  209.88  21.70
361.9  1009.93  211.27  20.92
363.5  1059.53  215.25  20.32
365.1  1102.67  218.45  19.81
366.6  1156.59  223.26  19.30
368.2  1218.77  221.04  18.14
369.7  1306.00  217.12  16.62
371.3  1379.56  221.69  16.07
372.8  1457.48  230.19  15.79
374.4  1528.58  235.30  15.39
375.9  1575.56  240.53  15.27
377.4  1632.76  239.06  14.64
379.0  1683.54  238.16  14.15
380.5  1741.87  242.10  13.90
382.1  1805.51  237.88  13.18
383.6  1862.60  237.20  12.73
385.2  1949.75  241.08  12.36
386.7  2036.04  244.13  11.99
388.3  2135.96  250.46  11.73
389.8  2212.47  258.94  11.70
391.3  2314.34  275.72  11.91
392.9  2392.65  279.76  11.69
394.4  2474.90  290.32  11.73
395.9  2552.82  306.67  12.01
397.5  2664.75  326.23  12.24
399.0  2774.82  334.24  12.05
400.6  2852.64  327.34  11.47
402.1  2910.24  316.05  10.86
403.6  2965.71  310.88  10.48
405.1  3036.77  316.09  10.41
406.7  3133.76  323.68  10.33
408.2  3234.33  333.01  10.30
409.7  3330.88  341.97  10.27
411.3  3437.91  357.64  10.40
412.8  3528.93  372.09  10.54
414.3  3634.54  389.56  10.72
415.8  3740.00  404.58  10.82
417.4  3868.37  415.76  10.75
418.9  3954.39  425.04  10.75
420.4  4037.85  434.11  10.75
421.9  4106.74  436.81  10.64
423.5  4196.00  439.76  10.48
425.0  4263.51  443.88  10.41
426.5  4364.50  449.71  10.30
428.0  4488.82  456.00  10.16
429.5  4615.58  466.43  10.11
431.1  4756.23  478.91  10.07
432.6  4917.76  492.16  10.01
434.1  5064.68  505.96  9.99
435.6  5199.35  520.84  10.02
437.1  5333.25  534.30  10.02
438.6  5454.84  554.46  10.16
440.1  5584.70  569.64  10.20
441.6  5717.14  588.07  10.29
443.1  5852.25  608.85  10.40
444.7  5982.11  635.68  10.63
446.2  6104.50  657.46  10.77
447.7  6213.60  685.73  11.04
449.2  6315.84  714.96  11.32
450.7  6414.72  733.89  11.44
452.2  6543.45  755.54  11.55
453.7  6682.65  774.49  11.59
455.2  6842.54  804.76  11.76
456.7  7029.44  834.83  11.88
458.2  7231.16  869.09  12.02
459.7  7428.75  904.17  12.17
461.2  7633.63  935.45  12.25
462.7  7815.14  965.11  12.35
464.2  8000.76  996.13  12.45
465.7  8191.53  1025.12  12.51
467.2  8352.58  1053.62  12.61
468.7  8552.00  1084.00  12.68
470.2  8711.17  1111.05  12.75
471.7  8854.00  1153.86  13.03
473.2  9050.37  1201.91  13.28
474.6  9252.88  1223.96  13.23
476.1  9378.88  1227.13  13.08
477.6  9464.51  1232.90  13.03
479.1  9567.20  1248.74  13.05
480.6  9658.16  1269.11  13.14
482.1  9797.74  1295.44  13.22
483.6  9963.22  1325.34  13.30
485.1  10140.49  1363.53  13.45
486.6  10356.19  1408.06  13.60
488.0  10562.50  1461.42  13.84
489.5  10784.97  1518.37  14.08
491.0  10998.86  1585.89  14.42
492.5  11224.98  1660.50  14.79
494.0  11462.99  1744.55  15.22
495.4  11663.85  1827.38  15.67
496.9  11870.36  1925.24  16.22
498.4  12074.30  2029.31  16.81
499.9  12278.41  2146.30  17.48
501.4  12476.75  2269.67  18.19
502.8  12664.51  2406.47  19.00
504.3  12846.60  2552.40  19.87
505.8  13033.73  2709.88  20.79
507.2  13172.68  2867.01  21.76
508.7  13289.99  3028.76  22.79
510.2  13412.81  3194.92  23.82
511.6  13494.72  3366.61  24.95
513.1  13630.43  3550.20  26.05
514.6  13795.53  3747.99  27.17
516.0  13946.28  3943.49  28.28
517.5  14135.83  4165.84  29.47
519.0  14365.19  4400.58  30.63
520.5  14579.60  4636.55  31.80
521.9  14828.55  4890.98  32.98
523.4  15093.49  5152.12  34.13
524.8  15349.14  5408.81  35.24
526.3  15633.70  5674.26  36.30
527.8  15915.89  5931.52  37.27
529.2  16178.21  6171.04  38.14
530.7  16455.24  6416.27  38.99
532.1  16698.15  6642.79  39.78
533.6  16994.07  6872.38  40.44
535.0  17295.55  7104.98  41.08
536.5  17581.25  7321.52  41.64
538.0  17895.84  7542.16  42.14
539.4  18160.64  7749.90  42.67
540.9  18488.86  7986.01  43.19
542.3  18738.28  8179.68  43.65
543.8  18940.29  8331.94  43.99
545.2  19020.35  8422.74  44.28
546.6  19057.19  8490.96  44.56
548.1  19121.11  8564.05  44.79
549.5  19166.91  8629.73  45.02
551.0  19217.70  8680.17  45.17
552.4  19311.21  8738.58  45.25
553.9  19371.38  8773.69  45.29
555.3  19461.20  8805.13  45.24
556.8  19596.88  8854.51  45.18
558.2  19743.75  8892.84  45.04
559.6  19902.71  8938.92  44.91
561.1  20117.50  9000.87  44.74
562.5  20332.52  9071.49  44.62
564.0  20611.34  9161.83  44.45
565.4  20865.50  9230.58  44.24
566.8  21177.73  9319.26  44.00
568.3  21463.05  9384.16  43.72
569.7  21776.78  9442.78  43.36
571.1  22080.65  9487.02  42.97
572.6  22373.82  9521.28  42.56
574.0  22675.95  9551.58  42.12
575.4  22958.44  9573.47  41.70
576.9  23231.09  9593.72  41.30
578.3  23477.03  9602.45  40.90
579.7  23721.74  9612.92  40.52
581.1  23920.49  9608.39  40.17
582.6  24132.47  9615.30  39.84
584.0  24305.80  9610.31  39.54
585.4  24549.94  9636.89  39.25
586.8  24845.17  9700.81  39.05
588.3  25201.80  9775.35  38.79
589.7  25517.70  9835.02  38.54
591.1  25735.55  9865.72  38.33
592.5  25883.00  9858.85  38.09
594.0  25998.42  9846.81  37.87
595.4  26057.54  9819.08  37.68
596.8  26115.38  9796.58  37.51
598.2  26174.55  9767.19  37.32
599.6  26202.06  9734.52  37.15
601.0  26298.70  9717.13  36.95
602.4  26372.18  9693.96  36.76
603.9  26501.77  9668.35  36.48
605.3  26625.41  9642.59  36.22
606.7  26749.80  9604.50  35.90
608.1  26941.18  9589.97  35.60
609.5  27151.69  9573.73  35.26
610.9  27387.74  9563.05  34.92
612.3  27589.20  9541.13  34.58
613.7  27871.80  9545.07  34.25
615.1  28061.64  9515.07  33.91
616.5  28235.16  9485.55  33.59
617.9  28534.12  9506.30  33.32
619.3  28808.15  9520.86  33.05
620.7  29149.14  9574.80  32.85
622.1  29527.66  9634.19  32.63
623.5  29951.83  9714.44  32.43
624.9  30436.35  9829.09  32.29
626.3  30757.12  9923.74  32.26
627.7  30461.43  9854.80  32.35
629.1  30188.34  9818.40  32.52
630.5  30083.03  9844.75  32.73
631.9  30076.12  9891.70  32.89
633.3  30078.24  9889.09  32.88
634.7  30183.54  9881.21  32.74
636.1  30268.81  9815.75  32.43
637.5  30374.19  9724.52  32.02
638.9  30520.15  9627.83  31.55
640.2  30643.60  9482.67  30.95
641.6  30733.56  9295.65  30.25
643.0  30777.50  9107.38  29.59
644.4  30869.16  8911.40  28.87
645.8  30855.38  8672.55  28.11
647.2  31023.20  8453.99  27.25
648.5  31185.15  8217.13  26.35
649.9  31117.13  7917.23  25.44
651.3  31099.80  7616.43  24.49
652.7  31059.00  7295.55  23.49
654.1  30961.56  7113.91  22.98
655.5  30829.51  6971.63  22.61
656.8  30685.81  6822.45  22.23
658.2  30861.69  6730.21  21.81
659.6  31181.89  6638.80  21.29
660.9  31452.29  6499.05  20.66
662.3  31767.46  6355.83  20.01
663.7  32102.70  6207.95  19.34
665.0  32334.98  6054.18  18.72
666.4  32575.38  5911.06  18.15
667.8  32873.84  5797.16  17.63
669.1  33084.01  5706.57  17.25
670.5  33327.47  5643.77  16.93
671.9  33513.12  5591.64  16.68
673.2  33742.50  5584.55  16.55
674.6  33950.66  5596.45  16.48
676.0  34219.05  5651.36  16.52
677.3  34494.18  5739.25  16.64
678.7  34767.13  5879.88  16.91
680.0  35103.31  6089.79  17.35
681.4  35420.13  6377.53  18.01
682.8  35763.00  6760.92  18.90
684.1  36073.44  7251.27  20.10
685.5  36318.59  7859.38  21.64
686.8  36607.26  8612.87  23.53
688.2  36844.31  9491.56  25.76
689.5  36898.97  10446.58  28.31
690.9  36950.15  11495.92  31.11
692.2  37008.15  12618.68  34.10
693.6  37024.93  13778.53  37.21
694.9  37005.38  14927.87  40.34
696.2  37027.13  16102.02  43.49
697.6  37047.86  17261.66  46.59
698.9  37049.76  18386.72  49.63
700.3  37075.62  19478.10  52.54
701.6  37124.24  20533.15  55.31
703.0  37178.40  21525.73  57.90
704.3  37172.20  22428.27  60.34
705.6  37157.22  23250.47  62.57
707.0  37168.46  24040.32  64.68
708.3  37076.04  24692.70  66.60
709.6  36967.81  25303.30  68.45
711.0  36867.73  25837.57  70.08
712.3  36770.31  26303.76  71.54
713.6  36755.88  26806.92  72.93
714.9  36684.64  27240.19  74.26
716.3  36701.44  27705.08  75.49
717.6  36734.04  28152.03  76.64
718.9  36680.73  28501.30  77.70
720.2  36496.25  28727.44  78.71
721.6  36394.28  28976.09  79.62
722.9  36240.12  29169.30  80.49
724.2  36067.30  29250.57  81.10
725.5  35963.70  29362.70  81.65
726.8  35833.96  29443.84  82.17
728.1  35810.80  29583.57  82.61
729.5  35779.10  29674.90  82.94
730.8  35779.13  29764.84  83.19
732.1  35704.25  29799.16  83.46
733.4  35690.92  29853.62  83.64
734.7  35685.89  29903.05  83.80
736.0  35729.66  29982.58  83.92
737.3  35717.44  29999.72  83.99
738.6  35830.21  30159.61  84.17
739.9  36014.88  30379.03  84.35
741.2  36161.58  30560.08  84.51
742.5  36363.94  30830.60  84.78
743.8  36737.66  31249.01  85.06
745.1  37309.08  31839.86  85.34
746.4  37926.98  32540.08  85.80
747.7  38536.99  33289.77  86.38
749.0  39118.92  34033.31  87.00
750.3  39493.02  34508.08  87.38
751.6  39440.80  34534.42  87.56
752.9  39084.79  34232.03  87.58
754.2  38731.25  33874.79  87.46
755.4  38386.91  33468.94  87.19
756.7  38244.09  33343.17  87.19
758.0  38261.36  33389.43  87.27
759.3  38489.95  33643.19  87.41
760.6  38786.44  33969.83  87.58
761.9  39062.28  34273.80  87.74
763.1  39197.21  34466.22  87.93
764.4  39371.54  34698.55  88.13
765.7  39490.75  34876.29  88.32
767.0  39577.16  35023.01  88.49
768.2  39644.64  35146.16  88.65
769.5  39697.68  35239.55  88.77
770.8  39836.32  35444.88  88.98
772.0  39856.44  35504.95  89.08
773.3  39898.95  35616.85  89.27
774.6  39978.84  35755.46  89.44
775.8  40054.79  35883.11  89.59
777.1  40085.96  35950.10  89.68
778.4  40059.57  35936.81  89.71
779.6  39999.54  35966.71  89.92
780.9  39948.00  35934.00  89.95
782.1  39837.20  35821.71  89.92
783.4  39802.88  35867.52  90.11
784.6  39851.08  35912.05  90.12
785.9  40095.40  36188.44  90.26
787.1  40531.58  36740.47  90.65
788.4  40834.19  37261.76  91.25
789.6  40796.10  37359.29  91.58
790.9  40479.11  37075.66  91.59
792.1  40128.24  36697.60  91.45
793.4  39739.41  36351.11  91.47
794.6  39507.48  36157.10  91.52
795.8  39314.07  35982.28  91.53
797.1  39097.95  35764.30  91.47
798.3  38940.83  35636.01  91.51
799.5  38821.14  35590.57  91.68
800.8  38733.05  35512.82  91.69
802.0  38591.76  35439.81  91.83
803.2  38469.72  35352.43  91.90
804.5  38377.94  35311.68  92.01
805.7  38264.87  35248.37  92.12
806.9  38181.95  35168.30  92.11
808.1  38074.65  35104.48  92.20
809.4  38033.33  35087.73  92.26
810.6  37951.55  35031.21  92.31
811.8  37942.61  35014.68  92.28
813.0  37965.80  35045.41  92.31
814.2  37975.49  35084.74  92.39
815.4  38039.93  35213.01  92.57
816.6  38032.65  35266.74  92.73
817.9  38050.16  35343.93  92.89
819.1  37997.24  35292.62  92.88
820.3  37865.18  35169.46  92.88
821.5  37787.61  35055.81  92.77
822.7  37714.41  34982.99  92.76
823.9  37704.87  34953.79  92.70
825.1  37688.07  34930.02  92.68
826.3  37716.38  34902.30  92.54
827.5  37726.06  34887.66  92.48
828.7  37779.60  34858.16  92.27
829.9  37796.29  34835.59  92.17
831.0  37849.02  34843.89  92.06
832.2  37913.75  34848.26  91.91
833.4  37950.44  34861.96  91.86
834.6  37978.13  34878.13  91.84
835.8  38031.53  34909.09  91.79
837.0  38073.26  34977.56  91.87
838.1  38178.69  35075.42  91.87
839.3  38239.24  35129.75  91.87
840.5  38296.24  35208.42  91.94
841.7  38381.58  35323.81  92.03
842.9  38485.06  35411.97  92.01
844.0  38543.94  35488.74  92.07
845.2  38626.85  35613.43  92.20
846.4  38724.98  35709.22  92.21
847.5  38888.12  35894.26  92.30
848.7  39002.30  36068.10  92.48
849.9  39141.74  36242.67  92.59
851.0  39173.78  36318.81  92.71
852.2  39245.07  36403.15  92.76
853.3  39202.67  36409.70  92.88
854.5  39188.19  36424.95  92.95
855.6  39170.88  36418.19  92.97
856.8  39193.80  36435.62  92.96
857.9  39192.81  36445.45  92.99
859.1  39326.60  36562.43  92.97
860.2  39300.24  36565.30  93.04
861.4  39344.78  36580.23  92.97
862.5  39384.29  36614.03  92.97
863.7  39467.66  36682.87  92.94
864.8  39454.45  36689.16  92.99
865.9  39398.65  36637.80  92.99
867.1  39448.45  36664.94  92.94
868.2  39441.53  36667.48  92.97
869.3  39465.67  36687.18  92.96
870.5  39438.89  36612.46  92.83
871.6  39473.54  36587.48  92.69
872.7  39541.37  36632.44  92.64
873.9  39548.50  36647.23  92.66
875.0  39546.05  36589.45  92.52
876.1  39583.15  36577.89  92.41
877.2  39616.79  36568.64  92.31
878.3  39601.98  36522.18  92.22
879.4  39662.11  36542.28  92.13
880.5  39702.60  36563.10  92.09
881.7  39698.10  36499.78  91.94
882.8  39775.46  36526.17  91.83
883.9  39785.32  36558.18  91.89
885.0  39766.55  36477.81  91.73
886.1  39735.85  36447.64  91.72
887.2  39664.66  36303.15  91.53
888.3  39567.00  36197.81  91.48
889.4  39535.02  36087.47  91.28
890.5  39459.91  35989.98  91.21
891.6  39428.33  35874.96  90.99
892.7  39429.01  35831.12  90.88
893.8  39492.50  35805.50  90.66
894.9  39505.51  35756.13  90.51
896.0  39527.49  35676.00  90.26
897.0  39487.40  35669.76  90.33
898.1  39490.45  35631.49  90.23
899.2  39536.22  35591.63  90.02
900.3  39503.73  35462.90  89.77
901.4  39454.09  35386.12  89.69
902.4  39461.49  35323.10  89.51
903.5  39418.10  35242.72  89.41
904.6  39431.18  35196.86  89.26
905.7  39454.64  35151.28  89.09
906.7  39397.52  35064.98  89.00
907.8  39514.80  35067.77  88.75
908.9  39443.33  34944.13  88.59
909.9  39411.21  34848.87  88.42
911.0  39357.50  34741.43  88.27
912.1  39280.99  34609.36  88.11
913.1  39233.48  34512.49  87.97
914.2  39173.92  34312.75  87.59
915.2  39170.79  34217.42  87.35
916.3  39094.50  34128.13  87.30
917.3  39076.47  34030.27  87.09
918.4  39031.30  33852.22  86.73
919.4  39022.48  33707.44  86.38
920.5  39026.74  33589.72  86.07
921.5  39018.63  33473.35  85.79
922.6  38959.72  33298.50  85.47
923.6  39026.05  33172.67  85.00
924.7  39022.50  33041.92  84.67
925.7  39030.84  32867.79  84.21
926.7  39009.32  32767.39  84.00
927.8  39032.57  32636.12  83.61
928.8  39142.62  32546.12  83.15
929.9  39330.10  32462.31  82.54
930.9  39447.46  32408.58  82.16
931.9  39602.61  32344.82  81.67
932.9  39864.58  32363.55  81.18
934.0  39909.81  32234.85  80.77
935.0  39942.68  32013.05  80.15
936.0  39929.50  31776.19  79.58
937.0  39883.94  31535.63  79.07
938.1  39848.52  31303.87  78.56
939.1  39753.89  31071.25  78.16
940.1  39867.76  30928.67  77.58
941.1  39995.43  30846.47  77.12
942.1  40229.45  30800.09  76.56
943.1  40393.76  30689.54  75.98
944.1  40552.56  30613.71  75.49
945.2  40570.32  30419.06  74.98
946.2  40685.67  30254.80  74.36
947.2  40740.25  30035.79  73.73
948.2  40874.09  29882.77  73.11
949.2  40954.06  29687.67  72.49
950.2  41026.00  29434.75  71.75
951.2  41012.16  29228.78  71.27
952.2  41170.94  29055.00  70.57
953.2  41257.13  28879.99  70.00
954.2  41395.95  28707.82  69.35
955.2  41401.94  28492.32  68.82
956.2  41391.82  28249.45  68.25
957.2  41524.97  28117.02  67.71
958.2  41486.28  28019.01  67.54
959.2  41625.00  27927.60  67.09
960.1  41647.94  27836.21  66.84
961.1  41725.78  27785.27  66.59
962.1  41752.50  27704.37  66.35
963.1  41720.60  27676.91  66.34
964.1  41837.60  27658.26  66.11
965.1  41932.95  27705.93  66.07
966.1  41961.44  27679.21  65.96
967.0  42058.17  27708.36  65.88
968.0  42094.69  27668.16  65.73
969.0  42115.20  27695.17  65.76
970.0  42092.26  27737.77  65.90
971.0  42266.18  27710.36  65.56
971.9  42275.33  27742.69  65.62
972.9  42388.85  27796.17  65.57
973.9  42492.13  27810.30  65.45
974.9  42580.28  27911.05  65.55
975.8  42630.52  27989.88  65.66
976.8  42806.43  28042.66  65.51
977.8  42848.34  28135.48  65.66
978.8  42868.95  28148.00  65.66
979.7  43050.58  28358.14  65.87
980.7  43264.32  28365.70  65.56
981.7  43347.07  28571.96  65.91
982.6  43545.07  28765.99  66.06
983.6  44003.55  29121.31  66.18
984.6  44377.46  29444.09  66.35
985.5  44900.28  29933.52  66.67
986.5  45688.01  30537.72  66.84
987.5  46285.78  31177.98  67.36
988.4  47161.40  32010.00  67.87
989.4  47812.76  32811.46  68.62
990.4  48753.98  34084.00  69.91
991.3  50274.64  35334.26  70.28
992.3  50864.45  36257.22  71.28
993.2  51610.85  37436.57  72.54
994.2  53891.66  38710.91  71.83
995.2  55394.96  39541.18  71.38
996.1  55625.12  40343.49  72.53
997.1  56348.70  40442.95  71.77
998.0  54473.40  41112.00  75.47
999.0  55283.87  41493.02  75.05
1000.0  55127.21  41626.67  75.51
1000.9  55875.58  41513.20  74.30
1001.9  56355.47  42300.39  75.06
1002.8  54776.67  41953.63  76.59
1003.8  57170.04  41750.13  73.03
1004.8  54763.20  41756.94  76.25
961.5  49984.08  29068.75  58.16
965.5  48959.90  28830.05  58.89
969.5  47367.08  28183.95  59.50
973.4  45664.01  27602.76  60.45
977.4  44063.24  27190.05  61.71
981.4  43484.76  27236.17  62.63
985.3  43466.28  27439.04  63.13
989.3  43739.41  27764.33  63.48
993.3  44088.36  28146.02  63.84
997.2  44246.85  28463.06  64.33
1001.2  44240.69  28795.61  65.09
1005.2  44147.66  29163.25  66.06
1009.1  44170.72  29650.91  67.13
1013.1  44298.35  30221.26  68.22
1017.1  44409.64  30810.80  69.38
1021.0  44418.65  31316.96  70.50
1025.0  44431.92  31830.05  71.64
1029.0  44310.95  32253.55  72.79
1032.9  44196.36  32658.69  73.89
1036.9  44214.81  33151.51  74.98
1040.9  44317.48  33701.94  76.05
1044.8  44471.57  34288.80  77.10
1048.8  44586.22  34806.43  78.07
1052.7  44660.98  35225.58  78.87
1056.7  44664.90  35541.29  79.57
1060.7  44652.74  35785.59  80.14
1064.6  44643.90  35971.48  80.57
1068.6  44545.19  36027.23  80.88
1072.5  44448.63  36000.14  80.99
1076.5  44390.31  35951.56  80.99
1080.4  44363.13  35859.66  80.83
1084.4  44428.99  35775.10  80.52
1088.3  44526.89  35651.52  80.07
1092.3  44515.11  35360.11  79.43
1096.2  44485.25  35042.56  78.77
1100.2  44489.30  34743.90  78.09
1104.1  44387.15  34315.91  77.31
1108.1  44344.78  33931.24  76.52
1112.0  44255.25  33496.49  75.69
1116.0  44078.91  32947.83  74.75
1119.9  43920.46  32353.27  73.66
1123.9  43980.05  31751.78  72.20
1127.8  43933.44  30841.60  70.20
1131.8  43891.20  29676.09  67.61
1135.7  43904.71  28328.15  64.52
1139.6  43873.24  26870.61  61.25
1143.6  43814.30  25491.78  58.18
1147.5  43764.96  24314.28  55.56
1151.4  43600.54  23332.29  53.51
1155.4  43567.43  22703.91  52.11
1159.3  43548.37  22300.80  51.21
1163.2  43379.84  21952.30  50.60
1167.2  43333.14  21767.46  50.23
1171.1  43320.14  21657.73  49.99
1175.0  43247.45  21531.53  49.79
1179.0  43203.54  21418.38  49.58
1182.9  43281.26  21366.71  49.37
1186.8  43262.79  21284.06  49.20
1190.7  43059.97  21119.23  49.05
1194.7  42822.73  20958.20  48.94
1198.6  42602.18  20843.13  48.93
1202.5  42456.57  20785.02  48.96
1206.4  42335.53  20768.96  49.06
1210.3  42230.32  20774.53  49.19
1214.2  42126.94  20815.36  49.41
1218.2  41984.08  20873.59  49.72
1222.1  41854.50  20934.89  50.02
1226.0  41760.57  21014.16  50.32
1229.9  41673.90  21099.30  50.63
1233.8  41576.55  21165.56  50.91
1237.7  41528.30  21240.94  51.15
1241.6  41457.25  21293.20  51.36
1245.5  41309.15  21310.13  51.59
1249.4  41175.26  21328.40  51.80
1253.3  41058.30  21340.18  51.98
1257.2  40978.33  21366.18  52.14
1261.1  40873.57  21351.93  52.24
1265.0  40757.89  21301.64  52.26
1268.9  40587.74  21185.65  52.20
1272.8  40626.75  21168.85  52.11
1276.7  40780.33  21194.16  51.97
1280.6  40842.56  21136.33  51.75
1284.5  40748.73  20974.85  51.47
1288.4  40697.88  20792.67  51.09
1292.3  40562.50  20530.58  50.61
1296.2  40411.46  20223.82  50.04
1300.1  40239.63  19862.73  49.36
1303.9  40009.73  19441.91  48.59
1307.8  39785.54  18999.12  47.75
1311.7  39554.21  18508.38  46.79
1315.6  39326.35  17991.41  45.75
1319.5  39086.11  17450.22  44.65
1323.3  38870.69  16909.21  43.50
1327.2  38681.53  16381.89  42.35
1331.1  38474.56  15851.35  41.20
1335.0  38203.08  15309.07  40.07
1338.8  38009.09  14828.56  39.01
1342.7  37876.27  14394.97  38.01
1346.5  37598.34  13909.43  36.99
1350.4  37400.07  13477.75  36.04
