/*** Spectra Vista SIG Data ***/
name= AT.sig
comm= Averaged Ref/Tar of files: AT1,AT2,AT3
data=
346.4  681.59  542.51  79.60
347.9  715.35  571.02  79.82
349.5  770.64  616.72  80.03
351.1  842.40  659.36  78.27
352.6  898.15  704.19  78.40
354.2  935.94  762.49  81.47
355.7  1013.62  823.92  81.28
357.3  1085.33  866.88  79.87
358.8  1118.40  893.56  79.90
360.4  1202.99  954.41  79.34
361.9  1232.81  1002.96  81.36
363.5  1270.74  1049.14  82.56
365.1  1317.65  1076.08  81.67
366.6  1387.91  1140.48  82.17
368.2  1463.87  1204.22  82.26
369.7  1534.55  1260.29  82.13
371.3  1633.08  1347.73  82.53
372.8  1713.12  1415.43  82.62
374.4  1792.24  1481.85  82.68
375.9  1860.22  1532.53  82.38
377.4  1899.46  1578.55  83.11
379.0  1960.42  1630.50  83.17
380.5  2031.15  1674.16  82.42
382.1  2086.23  1723.75  82.63
383.6  2157.44  1785.11  82.74
385.2  2246.75  1857.17  82.66
386.7  2352.82  1943.08  82.59
388.3  2459.34  2035.41  82.76
389.8  2572.07  2117.31  82.32
391.3  2656.89  2201.08  82.84
392.9  2742.58  2269.36  82.75
394.4  2813.19  2328.50  82.77
395.9  2929.62  2409.43  82.24
397.5  3078.19  2532.32  82.27
399.0  3204.33  2636.80  82.29
400.6  3294.12  2699.82  81.96
402.1  3341.10  2730.50  81.72
403.6  3394.86  2760.32  81.31
405.1  3468.63  2825.02  81.44
406.7  3608.64  2917.23  80.84
408.2  3731.06  3014.55  80.80
409.7  3852.80  3091.20  80.23
411.3  3974.94  3188.52  80.22
412.8  4078.77  3270.60  80.19
414.3  4209.70  3361.23  79.84
415.8  4355.00  3459.17  79.43
417.4  4488.22  3561.40  79.35
418.9  4602.07  3643.20  79.16
420.4  4700.86  3706.35  78.84
421.9  4779.50  3762.29  78.72
423.5  4868.48  3818.50  78.43
425.0  4946.75  3876.94  78.37
426.5  5061.10  3949.55  78.04
428.0  5190.77  4051.64  78.05
429.5  5352.25  4167.91  77.87
431.1  5547.65  4302.15  77.55
432.6  5755.97  4458.92  77.47
434.1  5948.25  4602.04  77.37
435.6  6124.28  4731.72  77.26
437.1  6302.40  4860.70  77.12
438.6  6474.68  4975.38  76.84
440.1  6639.39  5099.65  76.81
441.6  6824.52  5226.53  76.58
443.1  7000.43  5348.03  76.40
444.7  7161.68  5469.73  76.37
446.2  7304.35  5568.43  76.23
447.7  7436.90  5663.44  76.15
449.2  7603.20  5767.20  75.85
450.7  7741.76  5863.52  75.74
452.2  7897.34  5968.36  75.57
453.7  8068.35  6083.55  75.40
455.2  8271.36  6231.05  75.33
456.7  8521.92  6414.61  75.27
458.2  8798.66  6627.69  75.33
459.7  9084.25  6837.83  75.27
461.2  9358.03  7052.94  75.37
462.7  9610.51  7252.48  75.46
464.2  9858.21  7455.42  75.63
465.7  10114.09  7665.21  75.79
467.2  10348.80  7859.78  75.95
468.7  10580.00  8057.33  76.16
470.2  10734.52  8206.05  76.45
471.7  10963.00  8406.71  76.68
473.2  11373.85  8732.29  76.78
474.6  11705.47  9006.13  76.94
476.1  11816.88  9117.41  77.16
477.6  11856.58  9176.76  77.40
479.1  11942.66  9261.56  77.55
480.6  12045.55  9375.20  77.83
482.1  12235.28  9539.83  77.97
483.6  12450.16  9737.08  78.21
485.1  12713.77  9969.94  78.42
486.6  13023.49  10248.55  78.69
488.0  13336.38  10540.84  79.04
489.5  13672.59  10857.11  79.41
491.0  14011.01  11178.93  79.79
492.5  14354.82  11516.04  80.22
494.0  14711.73  11869.01  80.68
495.4  15019.95  12202.85  81.24
496.9  15327.26  12543.37  81.84
498.4  15628.55  12888.39  82.47
499.9  15928.10  13243.07  83.14
501.4  16209.31  13594.71  83.87
502.8  16473.62  13934.22  84.59
504.3  16714.80  14271.00  85.38
505.8  16959.20  14613.30  86.17
507.2  17126.33  14888.39  86.93
508.7  17247.52  15133.86  87.75
510.2  17339.71  15348.02  88.51
511.6  17411.75  15536.80  89.23
513.1  17544.34  15780.93  89.95
514.6  17698.58  16040.35  90.63
516.0  17825.00  16274.23  91.30
517.5  18047.36  16572.82  91.83
519.0  18295.51  16892.86  92.33
520.5  18536.92  17202.51  92.80
521.9  18853.35  17568.19  93.18
523.4  19205.40  17963.43  93.53
524.8  19558.90  18349.55  93.82
526.3  19954.88  18771.66  94.07
527.8  20358.54  19193.96  94.28
529.2  20720.63  19570.91  94.45
530.7  21131.94  19982.41  94.56
532.1  21496.13  20350.67  94.67
533.6  21912.96  20765.45  94.76
535.0  22337.12  21182.12  94.83
536.5  22744.89  21587.74  94.91
538.0  23176.64  22003.95  94.94
539.4  23579.50  22391.93  94.96
540.9  24073.87  22870.05  95.00
542.3  24503.44  23285.83  95.03
543.8  24803.15  23581.88  95.08
545.2  24902.77  23678.09  95.08
546.6  24905.23  23697.97  95.15
548.1  24938.84  23732.03  95.16
549.5  24960.43  23762.65  95.20
551.0  24980.05  23781.64  95.20
552.4  25028.39  23846.20  95.28
553.9  25067.16  23882.78  95.28
555.3  25131.60  23948.15  95.29
556.8  25277.69  24086.87  95.29
558.2  25413.75  24220.69  95.31
559.6  25588.96  24399.16  95.35
561.1  25845.63  24642.04  95.34
562.5  26127.16  24904.46  95.32
564.0  26493.28  25255.92  95.33
565.4  26820.56  25573.05  95.35
566.8  27250.49  25975.65  95.32
568.3  27646.12  26351.43  95.32
569.7  28068.80  26754.80  95.32
571.1  28477.04  27139.93  95.30
572.6  28887.84  27525.96  95.29
574.0  29285.85  27898.20  95.26
575.4  29666.25  28253.81  95.24
576.9  30024.23  28580.48  95.19
578.3  30349.96  28879.45  95.15
579.7  30653.88  29166.78  95.15
581.1  30910.34  29391.39  95.09
582.6  31174.82  29635.70  95.06
584.0  31418.40  29848.89  95.00
585.4  31752.38  30145.44  94.94
586.8  32199.46  30549.09  94.87
588.3  32687.46  30997.98  94.83
589.7  33118.02  31373.94  94.73
591.1  33373.37  31611.21  94.72
592.5  33516.68  31726.28  94.66
594.0  33586.38  31775.60  94.61
595.4  33595.98  31781.49  94.60
596.8  33610.01  31770.31  94.53
598.2  33616.52  31770.27  94.51
599.6  33610.59  31745.52  94.45
601.0  33699.08  31810.80  94.40
602.4  33774.48  31870.58  94.36
603.9  33926.33  31999.88  94.32
605.3  34072.12  32144.66  94.34
606.7  34210.80  32272.20  94.33
608.1  34483.94  32520.56  94.31
609.5  34774.03  32800.66  94.33
610.9  35139.01  33141.89  94.32
612.3  35462.58  33450.11  94.33
613.7  35909.44  33867.09  94.31
615.1  36223.20  34165.80  94.32
616.5  36545.85  34464.17  94.30
617.9  37036.98  34925.42  94.30
619.3  37494.41  35361.90  94.31
620.7  38051.02  35891.76  94.33
622.1  38641.49  36429.26  94.27
623.5  39289.89  37001.41  94.18
624.9  40013.40  37646.09  94.08
626.3  40479.43  38066.20  94.04
627.7  40087.97  37701.15  94.05
629.1  39710.48  37363.03  94.09
630.5  39552.45  37238.11  94.15
631.9  39557.81  37280.13  94.24
633.3  39572.53  37309.07  94.28
634.7  39751.95  37489.47  94.31
636.1  39830.37  37568.16  94.32
637.5  39936.85  37686.33  94.36
638.9  40099.55  37850.74  94.39
640.2  40240.49  37989.14  94.41
641.6  40287.78  38044.50  94.43
643.0  40238.03  38024.42  94.50
644.4  40224.03  38012.64  94.50
645.8  40114.18  37923.43  94.54
647.2  40273.35  38071.76  94.53
648.5  40378.39  38174.09  94.54
649.9  40207.64  38017.40  94.55
651.3  40068.15  37893.00  94.57
652.7  39902.40  37734.05  94.57
654.1  39689.64  37505.98  94.50
655.5  39416.14  37198.51  94.37
656.8  39148.45  36907.22  94.28
658.2  39361.62  37075.49  94.19
659.6  39806.72  37467.66  94.12
660.9  40175.43  37794.57  94.07
662.3  40554.61  38125.06  94.01
663.7  40918.50  38442.60  93.95
665.0  41229.34  38715.76  93.90
666.4  41547.80  38987.89  93.84
667.8  41946.66  39353.94  93.82
669.1  42284.47  39646.42  93.76
670.5  42673.95  39994.87  93.72
671.9  42913.44  40212.48  93.71
673.2  43266.07  40515.54  93.64
674.6  43566.00  40791.07  93.63
676.0  43930.78  41127.38  93.62
677.3  44282.02  41462.84  93.63
678.7  44697.25  41837.71  93.60
680.0  45213.86  42319.26  93.60
681.4  45766.98  42828.80  93.58
682.8  46293.98  43322.83  93.58
684.1  46823.40  43821.18  93.59
685.5  47322.04  44273.27  93.56
686.8  47792.88  44717.88  93.57
688.2  48223.18  45112.57  93.55
689.5  48388.99  45256.57  93.53
690.9  48523.61  45373.46  93.51
692.2  48646.35  45467.35  93.47
693.6  48753.62  45555.04  93.44
694.9  48726.02  45516.64  93.41
696.2  48776.96  45558.98  93.40
697.6  48830.24  45593.35  93.37
698.9  48898.08  45642.96  93.34
700.3  48978.48  45698.83  93.30
701.6  49085.51  45780.35  93.27
703.0  49193.20  45868.66  93.24
704.3  49249.85  45886.97  93.17
705.6  49257.45  45869.46  93.12
707.0  49309.07  45877.35  93.04
708.3  49207.12  45767.52  93.01
709.6  49114.54  45631.48  92.91
711.0  48939.26  45443.32  92.86
712.3  48769.81  45227.24  92.74
713.6  48704.04  45129.00  92.66
714.9  48602.78  44958.90  92.50
716.3  48588.70  44902.12  92.41
717.6  48617.52  44854.02  92.26
718.9  48536.49  44701.24  92.10
720.2  48307.49  44432.62  91.98
721.6  48153.95  44205.16  91.80
722.9  47936.01  43935.93  91.66
724.2  47639.85  43571.48  91.46
725.5  47424.98  43298.15  91.30
726.8  47209.28  43013.40  91.11
728.1  47104.31  42812.01  90.89
729.5  46996.71  42605.89  90.66
730.8  46923.49  42423.04  90.41
732.1  46798.99  42201.93  90.18
733.4  46744.13  42025.87  89.91
734.7  46680.56  41865.60  89.69
736.0  46677.48  41786.31  89.52
737.3  46612.39  41646.83  89.35
738.6  46734.01  41697.24  89.22
739.9  46954.51  41847.73  89.12
741.2  47125.26  41963.74  89.05
742.5  47447.37  42241.22  89.03
743.8  47996.03  42708.05  88.98
745.1  48809.24  43425.59  88.97
746.4  49781.55  44269.38  88.93
747.7  50790.38  45128.00  88.85
749.0  51767.36  45985.25  88.83
750.3  52328.61  46466.40  88.80
751.6  52272.25  46374.58  88.72
752.9  51775.93  45921.95  88.69
754.2  51201.15  45405.08  88.68
755.4  50592.92  44844.53  88.64
756.7  50384.83  44648.37  88.61
758.0  50414.79  44660.10  88.59
759.3  50743.55  44949.24  88.58
760.6  51174.20  45333.49  88.59
761.9  51603.98  45698.40  88.56
763.1  51849.31  45917.42  88.56
764.4  52152.71  46169.38  88.53
765.7  52377.00  46371.00  88.53
767.0  52549.38  46525.62  88.54
768.2  52701.60  46654.72  88.53
769.5  52810.63  46746.84  88.52
770.8  53045.44  46960.35  88.53
772.0  53100.56  47004.34  88.52
773.3  53188.98  47105.54  88.56
774.6  53354.08  47227.13  88.52
775.8  53461.20  47361.60  88.59
777.1  53508.78  47385.49  88.56
778.4  53425.65  47335.63  88.60
779.6  53400.84  47317.20  88.61
780.9  53292.00  47248.00  88.66
782.1  53076.89  47067.24  88.68
783.4  53094.08  47095.36  88.70
784.6  53123.36  47132.79  88.72
785.9  53493.24  47482.65  88.76
787.1  54140.96  48090.25  88.82
788.4  54650.90  48549.02  88.83
789.6  54606.79  48512.66  88.84
790.9  54195.46  48144.52  88.83
792.1  53621.44  47649.95  88.86
793.4  53038.60  47150.21  88.90
794.6  52638.96  46815.83  88.94
795.8  52305.98  46544.67  88.99
797.1  51958.28  46244.10  89.00
798.3  51700.28  46019.33  89.01
799.5  51533.89  45901.87  89.07
800.8  51368.49  45733.67  89.03
802.0  51198.04  45597.76  89.06
803.2  50985.60  45426.00  89.10
804.5  50860.04  45318.47  89.10
805.7  50719.84  45172.24  89.06
806.9  50562.35  45026.77  89.05
808.1  50423.43  44899.85  89.05
809.4  50370.79  44850.16  89.04
810.6  50259.30  44731.05  89.00
811.8  50219.77  44687.04  88.98
813.0  50240.18  44688.14  88.95
814.2  50269.35  44692.66  88.91
815.4  50395.26  44755.53  88.81
816.6  50435.43  44759.90  88.75
817.9  50520.02  44794.38  88.67
819.1  50453.18  44684.27  88.57
820.3  50292.84  44499.21  88.48
821.5  50186.52  44333.68  88.34
822.7  50129.14  44232.95  88.24
823.9  50164.82  44174.40  88.06
825.1  50200.66  44100.00  87.85
826.3  50240.05  44044.08  87.67
827.5  50318.09  43972.81  87.39
828.7  50415.36  43940.16  87.16
829.9  50507.84  43883.81  86.89
831.0  50650.69  43883.78  86.64
832.2  50792.03  43896.80  86.42
833.4  50916.96  43910.30  86.24
834.6  51046.88  43934.37  86.07
835.8  51200.10  43986.60  85.91
837.0  51345.98  44056.47  85.80
838.1  51556.89  44189.32  85.71
839.3  51695.05  44256.94  85.61
840.5  51868.53  44351.92  85.51
841.7  52057.89  44472.15  85.43
842.9  52261.97  44600.80  85.34
844.0  52431.51  44705.88  85.27
845.2  52643.35  44844.73  85.19
846.4  52843.91  44967.83  85.10
847.5  53153.14  45172.56  84.99
848.7  53388.72  45344.46  84.93
849.9  53666.68  45524.08  84.83
851.0  53788.26  45590.18  84.76
852.2  53905.28  45651.43  84.69
853.3  53940.07  45638.40  84.61
854.5  54007.25  45642.71  84.51
855.6  54016.74  45637.05  84.49
856.8  54107.98  45660.26  84.39
857.9  54162.24  45644.20  84.27
859.1  54349.20  45770.47  84.22
860.2  54391.08  45783.29  84.17
861.4  54467.60  45797.18  84.08
862.5  54552.96  45822.42  84.00
863.7  54662.15  45902.48  83.97
864.8  54702.90  45882.78  83.88
865.9  54674.99  45815.53  83.80
867.1  54786.85  45839.45  83.67
868.2  54827.42  45830.88  83.59
869.3  54894.96  45855.15  83.53
870.5  54823.91  45733.09  83.42
871.6  54852.19  45724.67  83.36
872.7  54976.29  45769.37  83.25
873.9  55056.83  45759.81  83.11
875.0  55062.49  45694.45  82.99
876.1  55095.98  45683.53  82.92
877.2  55156.47  45655.64  82.77
878.3  55149.66  45594.32  82.67
879.4  55272.06  45631.18  82.56
880.5  55376.64  45611.76  82.37
881.7  55347.50  45531.42  82.26
882.8  55420.30  45533.15  82.16
883.9  55513.79  45536.08  82.03
885.0  55479.74  45406.50  81.84
886.1  55501.34  45360.84  81.73
887.2  55343.74  45127.49  81.54
888.3  55258.91  44992.48  81.42
889.4  55154.68  44825.54  81.27
890.5  55047.57  44703.82  81.21
891.6  55001.16  44559.12  81.01
892.7  55026.90  44495.61  80.86
893.8  55055.10  44434.74  80.71
894.9  55090.42  44374.84  80.55
896.0  55028.29  44293.67  80.49
897.0  55118.03  44251.37  80.28
898.1  55158.46  44199.21  80.13
899.2  55180.72  44137.73  79.99
900.3  55062.96  43960.85  79.84
901.4  54962.33  43803.31  79.70
902.4  55001.76  43776.65  79.59
903.5  54972.37  43629.92  79.37
904.6  54964.96  43558.88  79.25
905.7  55017.73  43513.33  79.09
906.7  55035.12  43396.04  78.85
907.8  55039.86  43343.61  78.75
908.9  54991.33  43210.48  78.58
909.9  54943.35  43075.41  78.40
911.0  54872.96  42898.01  78.18
912.1  54790.79  42746.19  78.02
913.1  54735.20  42566.33  77.77
914.2  54541.69  42314.32  77.58
915.2  54595.35  42201.09  77.30
916.3  54551.40  42096.10  77.17
917.3  54573.71  41948.95  76.87
918.4  54446.43  41693.76  76.58
919.4  54414.23  41539.95  76.34
920.5  54428.77  41347.55  75.97
921.5  54475.89  41195.02  75.62
922.6  54410.90  40967.92  75.29
923.6  54447.03  40813.99  74.96
924.7  54459.50  40620.67  74.59
925.7  54495.48  40413.68  74.16
926.7  54553.81  40278.18  73.83
927.8  54636.73  40092.79  73.38
928.8  54842.19  39989.33  72.92
929.9  55044.05  39880.27  72.45
930.9  55283.54  39809.02  72.01
931.9  55540.52  39775.60  71.62
932.9  55963.96  39798.66  71.11
934.0  56021.37  39577.81  70.65
935.0  56120.05  39353.55  70.12
936.0  56003.16  39084.55  69.79
937.0  55977.87  38797.53  69.31
938.1  55974.27  38474.85  68.74
939.1  55917.43  38179.60  68.28
940.1  56074.66  38022.48  67.81
941.1  56382.36  37887.60  67.20
942.1  56663.67  37871.59  66.84
943.1  56919.06  37696.62  66.23
944.1  57215.88  37599.62  65.72
945.2  57301.02  37337.02  65.16
946.2  57440.15  37092.91  64.58
947.2  57566.00  36812.46  63.95
948.2  57830.17  36631.67  63.34
949.2  57915.81  36326.87  62.72
950.2  58040.55  36024.20  62.07
951.2  58176.72  35742.84  61.44
952.2  58298.86  35471.31  60.84
953.2  58588.08  35223.83  60.12
954.2  58732.20  35004.15  59.60
955.2  58792.29  34714.13  59.05
956.2  58815.84  34420.13  58.52
957.2  58926.82  34250.25  58.12
958.2  59082.07  34115.29  57.74
959.2  59207.40  33921.60  57.29
960.1  59348.74  33847.11  57.03
961.1  59359.58  33764.75  56.88
962.1  59493.75  33653.75  56.57
963.1  59598.25  33608.77  56.39
964.1  59786.68  33563.47  56.14
965.1  59964.50  33569.38  55.98
966.1  60040.47  33521.94  55.83
967.0  60244.94  33548.08  55.69
968.0  60221.39  33516.38  55.66
969.0  60305.20  33598.00  55.71
970.0  60412.43  33520.77  55.49
971.0  60471.39  33577.50  55.53
971.9  60602.51  33552.60  55.37
972.9  60755.71  33602.92  55.31
973.9  60849.75  33711.28  55.40
974.9  61002.11  33728.47  55.29
975.8  61135.91  33813.02  55.31
976.8  61284.89  33847.18  55.23
977.8  61421.26  33960.10  55.29
978.8  61596.45  34106.75  55.37
979.7  61642.27  34213.11  55.50
980.7  61834.58  34409.98  55.65
981.7  62172.83  34579.11  55.62
982.6  62605.04  34935.28  55.80
983.6  63245.05  35374.35  55.93
984.6  63939.77  35783.73  55.96
985.5  64840.68  36328.20  56.03
986.5  65844.49  37151.15  56.42
987.5  66724.84  38128.48  57.14
988.4  68288.00  39123.33  57.29
989.4  69534.49  40280.90  57.93
990.4  71817.24  41504.14  57.79
991.3  73281.68  42889.66  58.53
992.3  74535.98  44343.37  59.49
993.2  77416.28  45851.38  59.23
994.2  79445.93  47566.35  59.87
995.2  80574.48  48027.61  59.61
996.1  80992.61  49614.34  61.26
997.1  82080.18  50051.54  60.98
998.0  80511.00  49791.20  61.84
999.0  81661.15  50104.78  61.36
1000.0  81378.26  50377.02  61.90
1000.9  81845.92  51022.54  62.34
1001.9  81897.87  50273.94  61.39
1002.8  82374.07  50874.01  61.76
1003.8  81609.14  51496.68  63.10
1004.8  81688.44  51416.56  62.94
961.5  75985.22  34772.93  45.76
965.5  74100.90  34687.04  46.81
969.5  70587.41  34241.78  48.51
973.4  67194.39  33553.06  49.93
977.4  64603.44  33027.74  51.12
981.4  63251.87  33058.37  52.26
985.3  62876.14  33335.08  53.02
989.3  63064.38  33808.33  53.61
993.3  63365.29  34344.46  54.20
997.2  63438.27  34755.10  54.79
1001.2  63409.53  35125.22  55.39
1005.2  63357.85  35526.34  56.07
1009.1  63463.11  36062.14  56.82
1013.1  63704.79  36725.01  57.65
1017.1  63952.31  37414.63  58.50
1021.0  64068.74  38024.80  59.35
1025.0  64097.72  38615.81  60.25
1029.0  63930.84  39094.50  61.15
1032.9  63818.42  39575.25  62.01
1036.9  63891.54  40140.24  62.83
1040.9  64103.12  40797.71  63.64
1044.8  64414.80  41510.13  64.44
1048.8  64707.93  42151.51  65.14
1052.7  64944.71  42686.76  65.73
1056.7  65091.36  43077.91  66.18
1060.7  65194.70  43364.36  66.52
1064.6  65271.31  43579.30  66.77
1068.6  65221.52  43609.20  66.86
1072.5  65189.88  43548.55  66.80
1076.5  65194.55  43441.59  66.63
1080.4  65234.73  43264.32  66.32
1084.4  65410.41  43100.35  65.89
1088.3  65596.33  42881.95  65.37
1092.3  65667.83  42480.36  64.69
1096.2  65724.30  42012.23  63.92
1100.2  65797.69  41561.68  63.17
1104.1  65695.91  40983.67  62.38
1108.1  65682.50  40449.64  61.58
1112.0  65613.16  39856.43  60.74
1116.0  65416.30  39134.55  59.82
1119.9  65241.08  38319.65  58.74
1123.9  65374.05  37461.48  57.30
1127.8  65376.00  36202.24  55.38
1131.8  65389.13  34577.02  52.88
1135.7  65456.72  32675.72  49.92
1139.6  65507.30  30616.12  46.74
1143.6  65510.21  28665.69  43.76
1147.5  65490.53  27018.37  41.26
1151.4  65354.19  25668.99  39.28
1155.4  65378.22  24782.92  37.91
1159.3  65419.59  24197.58  36.99
1163.2  65259.60  23710.63  36.33
1167.2  65230.03  23411.20  35.89
1171.1  65282.82  23195.69  35.53
1175.0  65242.12  22973.00  35.21
1179.0  65227.68  22762.82  34.90
1182.9  65401.75  22614.43  34.58
1186.8  65409.09  22431.79  34.29
1190.7  65132.77  22164.69  34.03
1194.7  64829.75  21921.33  33.81
1198.6  64578.94  21747.50  33.68
1202.5  64368.53  21628.95  33.60
1206.4  64183.16  21555.11  33.58
1210.3  64065.63  21525.17  33.60
1214.2  63955.16  21541.73  33.68
1218.2  63763.20  21580.96  33.85
1222.1  63606.64  21645.57  34.03
1226.0  63491.71  21746.47  34.25
1229.9  63386.34  21850.84  34.47
1233.8  63280.45  21938.92  34.67
1237.7  63219.60  22024.78  34.84
1241.6  63128.59  22090.01  34.99
1245.5  62954.81  22116.74  35.13
1249.4  62815.45  22137.05  35.24
1253.3  62673.73  22151.71  35.34
1257.2  62580.14  22169.62  35.43
1261.1  62461.63  22145.08  35.45
1265.0  62312.66  22075.14  35.43
1268.9  62118.33  21933.50  35.31
1272.8  62245.78  21872.80  35.14
1276.7  62509.72  21837.36  34.93
1280.6  62688.92  21694.78  34.61
1284.5  62639.57  21420.07  34.20
1288.4  62629.78  21123.72  33.73
1292.3  62498.05  20735.92  33.18
1296.2  62328.71  20289.86  32.55
1300.1  62137.97  19793.10  31.85
1303.9  61850.33  19223.42  31.08
1307.8  61552.48  18604.56  30.23
1311.7  61248.81  17941.81  29.29
1315.6  60933.83  17252.68  28.31
1319.5  60626.67  16531.47  27.27
1323.3  60349.73  15808.40  26.19
1327.2  60092.51  15096.25  25.12
