/*** Spectra Vista SIG Data ***/
name= MF.sig
comm= Averaged Ref/Tar of files: M_F1,M_F2,M_F3
data=
346.4  630.63  244.18  38.72
347.9  683.98  252.05  36.85
349.5  730.08  246.48  33.76
351.1  795.60  254.80  32.03
352.6  847.55  258.27  30.47
354.2  906.48  268.35  29.60
355.7  986.68  281.75  28.56
357.3  1040.25  287.80  27.67
358.8  1065.98  295.91  27.76
360.4  1143.19  296.65  25.95
361.9  1187.53  294.85  24.83
363.5  1239.58  305.86  24.67
365.1  1293.38  310.92  24.04
366.6  1353.38  309.58  22.87
368.2  1426.94  301.06  21.10
369.7  1498.64  298.20  19.90
371.3  1600.16  298.52  18.66
372.8  1673.28  316.51  18.92
374.4  1748.85  315.95  18.07
375.9  1797.33  323.28  17.99
377.4  1870.19  317.66  16.99
379.0  1934.96  317.19  16.39
380.5  1988.07  312.88  15.74
382.1  2033.04  311.26  15.31
383.6  2120.58  302.40  14.26
385.2  2208.25  304.33  13.78
386.7  2301.38  304.14  13.22
388.3  2426.73  314.33  12.95
389.8  2519.91  327.57  13.00
391.3  2626.26  334.20  12.73
392.9  2697.06  341.40  12.66
394.4  2771.65  360.06  12.99
395.9  2873.10  389.36  13.55
397.5  3029.74  405.90  13.40
399.0  3151.80  405.82  12.88
400.6  3234.69  399.97  12.37
402.1  3274.02  387.86  11.85
403.6  3322.94  390.79  11.76
405.1  3409.22  407.50  11.95
406.7  3528.00  434.56  12.32
408.2  3644.19  472.97  12.98
409.7  3754.24  517.44  13.78
411.3  3867.08  582.93  15.07
412.8  3976.86  654.12  16.45
414.3  4099.56  738.33  18.01
415.8  4220.00  833.33  19.75
417.4  4361.72  946.22  21.69
418.9  4457.86  1060.91  23.80
420.4  4558.78  1178.12  25.84
421.9  4636.72  1290.67  27.84
423.5  4707.36  1395.55  29.65
425.0  4796.17  1499.08  31.26
426.5  4895.55  1600.32  32.69
428.0  5034.78  1692.63  33.62
429.5  5188.33  1792.65  34.55
431.1  5363.82  1880.18  35.05
432.6  5552.18  1969.92  35.48
434.1  5732.65  2041.79  35.62
435.6  5890.14  2114.96  35.91
437.1  6052.80  2172.30  35.89
438.6  6197.61  2223.73  35.88
440.1  6347.97  2273.93  35.82
441.6  6494.11  2320.23  35.73
443.1  6656.18  2363.85  35.51
444.7  6793.83  2407.78  35.44
446.2  6914.93  2446.71  35.38
447.7  7037.77  2480.41  35.24
449.2  7173.36  2521.44  35.15
450.7  7292.48  2545.23  34.90
452.2  7429.67  2580.05  34.73
453.7  7576.65  2618.05  34.55
455.2  7765.17  2673.96  34.44
456.7  7990.40  2752.05  34.44
458.2  8239.46  2838.52  34.45
459.7  8510.25  2926.00  34.38
461.2  8764.99  3011.68  34.36
462.7  8985.80  3097.89  34.48
464.2  9215.88  3184.20  34.55
465.7  9451.34  3276.24  34.66
467.2  9653.88  3366.83  34.88
468.7  9860.00  3452.67  35.02
470.2  10000.52  3526.51  35.26
471.7  10219.63  3626.63  35.49
473.2  10551.31  3760.63  35.64
474.6  10836.41  3862.00  35.64
476.1  10924.36  3900.09  35.70
477.6  10960.04  3933.92  35.89
479.1  11023.85  3982.76  36.13
480.6  11109.78  4042.94  36.39
482.1  11255.33  4124.25  36.64
483.6  11435.12  4223.91  36.94
485.1  11655.27  4345.28  37.28
486.6  11911.43  4487.24  37.67
488.0  12195.63  4646.96  38.10
489.5  12483.95  4815.39  38.57
491.0  12777.45  4997.68  39.11
492.5  13078.26  5196.42  39.73
494.0  13380.84  5414.58  40.47
495.4  13642.20  5627.60  41.25
496.9  13904.42  5858.92  42.14
498.4  14171.30  6101.46  43.06
499.9  14439.02  6362.77  44.07
501.4  14680.69  6636.82  45.21
502.8  14919.13  6916.89  46.36
504.3  15134.40  7206.00  47.61
505.8  15347.35  7512.25  48.95
507.2  15489.44  7793.37  50.31
508.7  15598.86  8066.75  51.71
510.2  15690.64  8335.71  53.13
511.6  15752.95  8599.37  54.59
513.1  15872.56  8889.98  56.01
514.6  16004.87  9194.58  57.45
516.0  16136.97  9487.06  58.79
517.5  16322.55  9818.90  60.16
519.0  16545.71  10172.96  61.48
520.5  16764.08  10518.41  62.74
521.9  17039.29  10900.50  63.97
523.4  17355.20  11304.30  65.13
524.8  17660.07  11702.06  66.26
526.3  18013.36  12114.74  67.25
527.8  18358.47  12530.26  68.25
529.2  18674.36  12913.44  69.15
530.7  19031.03  13309.60  69.94
532.1  19344.85  13676.28  70.70
533.6  19707.77  14061.72  71.35
535.0  20079.68  14450.78  71.97
536.5  20419.92  14819.61  72.57
538.0  20792.00  15191.65  73.06
539.4  21127.02  15540.70  73.56
540.9  21551.03  15948.71  74.00
542.3  21923.06  16307.14  74.38
543.8  22174.34  16576.45  74.76
545.2  22231.45  16697.72  75.11
546.6  22222.15  16760.90  75.42
548.1  22214.03  16833.36  75.78
549.5  22226.58  16890.58  75.99
551.0  22212.49  16942.81  76.28
552.4  22245.44  17022.15  76.52
553.9  22258.65  17077.20  76.72
555.3  22290.26  17155.71  76.97
556.8  22401.11  17285.29  77.16
558.2  22512.94  17425.69  77.40
559.6  22672.30  17588.66  77.58
561.1  22889.75  17799.17  77.76
562.5  23127.28  18038.27  78.00
564.0  23454.83  18339.51  78.19
565.4  23755.76  18617.88  78.37
566.8  24132.47  18958.27  78.56
568.3  24488.54  19286.19  78.76
569.7  24876.90  19634.61  78.93
571.1  25245.29  19970.88  79.11
572.6  25607.34  20311.56  79.32
574.0  25974.30  20644.25  79.48
575.4  26319.94  20961.00  79.64
576.9  26649.32  21259.51  79.78
578.3  26932.26  21535.80  79.96
579.7  27212.85  21802.43  80.12
581.1  27427.97  22022.77  80.29
582.6  27669.82  22256.27  80.44
584.0  27882.24  22464.93  80.57
585.4  28177.77  22747.85  80.73
586.8  28576.31  23104.43  80.85
588.3  29013.66  23495.16  80.98
589.7  29383.38  23831.34  81.10
591.1  29621.38  24046.46  81.18
592.5  29726.99  24165.01  81.29
594.0  29770.20  24242.40  81.43
595.4  29770.08  24262.67  81.50
596.8  29766.17  24281.40  81.57
598.2  29744.67  24289.62  81.66
599.6  29714.85  24296.28  81.76
601.0  29771.81  24359.74  81.82
602.4  29816.58  24422.85  81.91
603.9  29909.17  24529.94  82.01
605.3  30024.63  24647.79  82.09
606.7  30119.40  24750.00  82.17
608.1  30316.50  24937.49  82.26
609.5  30539.01  25146.35  82.34
610.9  30814.99  25405.75  82.45
612.3  31075.20  25640.36  82.51
613.7  31428.96  25955.73  82.59
615.1  31662.90  26166.24  82.64
616.5  31902.59  26384.60  82.70
617.9  32288.77  26729.70  82.78
619.3  32666.57  27066.72  82.86
620.7  33128.50  27487.84  82.97
622.1  33560.89  27893.43  83.11
623.5  34032.77  28328.40  83.24
624.9  34565.21  28788.11  83.29
626.3  34922.45  29035.22  83.14
627.7  34564.35  28659.53  82.92
629.1  34256.15  28400.82  82.91
630.5  34133.81  28446.20  83.34
631.9  34173.45  28621.23  83.75
633.3  34221.59  28723.82  83.93
634.7  34406.41  28855.91  83.87
636.1  34488.04  28903.18  83.81
637.5  34613.12  29022.84  83.85
638.9  34796.83  29233.06  84.01
640.2  34954.01  29410.63  84.14
641.6  35055.54  29494.14  84.14
643.0  35067.41  29473.80  84.05
644.4  35115.49  29494.43  83.99
645.8  35070.53  29468.91  84.03
647.2  35256.78  29658.11  84.12
648.5  35391.08  29891.21  84.46
649.9  35282.13  30024.54  85.10
651.3  35212.95  30177.55  85.70
652.7  35080.35  30213.25  86.13
654.1  34845.90  29956.24  85.97
655.5  34548.82  29613.27  85.71
656.8  34274.04  29297.52  85.48
658.2  34439.22  29393.76  85.35
659.6  34825.18  29704.59  85.30
660.9  35139.54  29979.10  85.31
662.3  35443.63  30245.63  85.33
663.7  35746.20  30487.10  85.29
665.0  36012.67  30716.18  85.29
666.4  36257.27  30933.70  85.32
667.8  36589.28  31222.99  85.33
669.1  36867.26  31460.28  85.33
670.5  37195.97  31748.62  85.35
671.9  37380.96  31936.88  85.44
673.2  37662.77  32184.21  85.45
674.6  37922.97  32412.83  85.47
676.0  38225.19  32693.69  85.53
677.3  38533.34  32972.51  85.57
678.7  38864.13  33272.54  85.61
680.0  39305.58  33659.98  85.64
681.4  39779.73  34067.45  85.64
682.8  40233.38  34465.49  85.66
684.1  40676.22  34887.84  85.77
685.5  41092.36  35253.48  85.79
686.8  41490.36  35614.24  85.84
688.2  41836.80  35910.04  85.83
689.5  41943.86  36005.92  85.84
690.9  42017.36  36084.86  85.88
692.2  42092.85  36139.45  85.86
693.6  42157.83  36211.64  85.90
694.9  42109.57  36174.36  85.91
696.2  42121.91  36201.71  85.95
697.6  42142.24  36235.38  85.98
698.9  42160.80  36257.76  86.00
700.3  42212.70  36300.43  85.99
701.6  42275.21  36370.24  86.03
703.0  42340.09  36444.26  86.08
704.3  42340.84  36441.06  86.07
705.6  42307.56  36422.52  86.09
707.0  42304.76  36418.07  86.09
708.3  42205.58  36314.53  86.04
709.6  42077.70  36230.87  86.10
711.0  41902.11  36098.99  86.15
712.3  41730.30  35959.67  86.17
713.6  41662.74  35883.68  86.13
714.9  41546.10  35819.59  86.22
716.3  41517.29  35813.15  86.26
717.6  41513.92  35836.06  86.32
718.9  41427.26  35761.40  86.32
720.2  41191.85  35588.23  86.40
721.6  41046.72  35461.40  86.39
722.9  40841.06  35295.51  86.42
724.2  40588.46  35084.94  86.44
725.5  40381.61  34941.09  86.53
726.8  40196.01  34800.09  86.58
728.1  40102.16  34721.64  86.58
729.5  40009.55  34645.45  86.59
730.8  39945.60  34599.26  86.62
732.1  39850.55  34539.85  86.67
733.4  39793.17  34514.49  86.73
734.7  39729.39  34497.52  86.83
736.0  39732.49  34515.31  86.87
737.3  39673.91  34480.26  86.91
738.6  39788.18  34585.72  86.92
739.9  39986.32  34773.64  86.96
741.2  40139.19  34935.81  87.04
742.5  40421.44  35203.19  87.09
743.8  40915.88  35640.41  87.11
745.1  41627.68  36283.29  87.16
746.4  42484.72  37034.12  87.17
747.7  43357.88  37838.55  87.27
749.0  44203.37  38580.30  87.28
750.3  44693.01  38991.05  87.24
751.6  44609.70  38922.75  87.25
752.9  44168.69  38565.01  87.31
754.2  43669.08  38135.58  87.33
755.4  43127.05  37681.87  87.37
756.7  42940.36  37533.19  87.41
758.0  42963.66  37573.65  87.45
759.3  43246.58  37834.14  87.48
760.6  43631.28  38209.45  87.57
761.9  43987.93  38566.60  87.68
763.1  44205.00  38753.05  87.67
764.4  44447.50  38984.03  87.71
765.7  44632.25  39159.25  87.74
767.0  44781.90  39290.95  87.74
768.2  44909.76  39430.72  87.80
769.5  44994.81  39527.94  87.85
770.8  45181.96  39715.59  87.90
772.0  45202.30  39746.54  87.93
773.3  45281.34  39854.46  88.02
774.6  45399.45  39961.70  88.02
775.8  45492.85  40039.84  88.01
777.1  45515.93  40059.34  88.01
778.4  45431.52  40014.45  88.08
779.6  45395.43  40006.09  88.13
780.9  45316.00  39930.67  88.12
782.1  45111.08  39786.97  88.20
783.4  45111.04  39783.47  88.19
784.6  45106.92  39785.45  88.20
785.9  45393.88  40055.26  88.24
787.1  45996.98  40606.90  88.28
788.4  46441.69  41026.37  88.34
789.6  46399.50  40941.32  88.24
790.9  45932.90  40507.23  88.19
792.1  45403.52  40035.52  88.18
793.4  44896.14  39616.40  88.24
794.6  44551.89  39309.66  88.23
795.8  44231.81  39042.15  88.27
797.1  43906.28  38768.55  88.30
798.3  43659.83  38574.80  88.35
799.5  43520.02  38450.30  88.35
800.8  43336.38  38308.40  88.40
802.0  43170.52  38151.81  88.37
803.2  42985.20  37987.59  88.37
804.5  42855.21  37872.93  88.37
805.7  42692.40  37746.30  88.41
806.9  42512.38  37596.72  88.44
808.1  42409.86  37499.34  88.42
809.4  42316.73  37438.91  88.47
810.6  42192.15  37350.95  88.53
811.8  42172.17  37313.13  88.48
813.0  42163.23  37329.96  88.54
814.2  42178.96  37361.03  88.58
815.4  42279.13  37439.26  88.55
816.6  42301.14  37470.47  88.58
817.9  42349.13  37494.99  88.54
819.1  42261.23  37410.41  88.52
820.3  42104.76  37295.52  88.58
821.5  41970.20  37192.08  88.62
822.7  41937.17  37136.62  88.55
823.9  41911.59  37134.21  88.60
825.1  41906.00  37132.36  88.61
826.3  41927.28  37183.39  88.69
827.5  41996.16  37218.26  88.62
828.7  42070.56  37279.52  88.61
829.9  42094.44  37313.13  88.64
831.0  42223.46  37415.56  88.61
832.2  42314.37  37499.26  88.62
833.4  42402.89  37595.30  88.66
834.6  42482.81  37657.81  88.64
835.8  42572.25  37735.43  88.64
837.0  42673.89  37847.59  88.69
838.1  42851.66  37976.35  88.62
839.3  42953.40  38054.18  88.59
840.5  43102.99  38187.78  88.60
841.7  43251.71  38304.99  88.56
842.9  43400.31  38446.17  88.59
844.0  43549.44  38569.71  88.57
845.2  43705.60  38723.24  88.60
846.4  43839.60  38818.11  88.55
847.5  44086.39  39021.83  88.51
848.7  44310.84  39193.30  88.45
849.9  44519.86  39357.47  88.40
851.0  44600.35  39420.27  88.39
852.2  44693.32  39464.96  88.30
853.3  44699.49  39444.33  88.24
854.5  44750.58  39425.69  88.10
855.6  44778.78  39444.24  88.09
856.8  44851.95  39449.05  87.95
857.9  44871.50  39425.84  87.86
859.1  45012.00  39518.80  87.80
860.2  45071.56  39507.48  87.66
861.4  45164.68  39514.58  87.49
862.5  45221.87  39498.38  87.34
863.7  45380.27  39555.06  87.16
864.8  45412.85  39520.95  87.03
865.9  45403.93  39461.63  86.91
867.1  45474.25  39443.88  86.74
868.2  45524.97  39457.76  86.67
869.3  45589.41  39468.02  86.57
870.5  45539.97  39429.35  86.58
871.6  45562.59  39485.64  86.66
872.7  45700.60  39605.23  86.66
873.9  45747.35  39643.21  86.66
875.0  45745.04  39652.28  86.68
876.1  45783.66  39667.88  86.64
877.2  45820.13  39718.61  86.68
878.3  45822.65  39793.14  86.84
879.4  45871.99  39840.69  86.85
880.5  45962.28  39893.04  86.80
881.7  45908.85  39917.80  86.95
882.8  46012.72  39973.60  86.88
883.9  46073.21  40048.05  86.92
885.0  46039.40  39991.32  86.86
886.1  46025.94  39965.50  86.83
887.2  45905.76  39832.29  86.77
888.3  45807.80  39728.87  86.73
889.4  45707.30  39607.00  86.65
890.5  45592.32  39549.96  86.75
891.6  45545.58  39467.42  86.65
892.7  45554.16  39438.05  86.57
893.8  45579.45  39489.47  86.64
894.9  45613.48  39441.60  86.47
896.0  45529.58  39405.12  86.55
897.0  45627.02  39398.16  86.35
898.1  45583.05  39360.43  86.35
899.2  45607.22  39352.53  86.29
900.3  45541.50  39272.11  86.23
901.4  45412.27  39171.26  86.26
902.4  45437.06  39155.29  86.17
903.5  45388.81  39082.17  86.11
904.6  45388.82  39097.02  86.14
905.7  45374.76  39099.63  86.17
906.7  45323.04  39066.71  86.20
907.8  45383.91  39095.12  86.14
908.9  45302.99  39044.92  86.19
909.9  45307.76  38988.17  86.05
911.0  45202.77  38932.51  86.13
912.1  45152.49  38848.25  86.04
913.1  45072.56  38765.83  86.01
914.2  44921.94  38654.38  86.05
915.2  44915.04  38644.65  86.04
916.3  44853.15  38628.85  86.12
917.3  44875.31  38618.49  86.06
918.4  44790.35  38525.95  86.01
919.4  44699.60  38527.19  86.19
920.5  44708.24  38506.80  86.13
921.5  44702.98  38507.56  86.14
922.6  44636.74  38503.31  86.26
923.6  44687.86  38543.59  86.25
924.7  44720.00  38578.17  86.27
925.7  44710.62  38578.34  86.28
926.7  44757.60  38607.09  86.26
927.8  44773.30  38640.98  86.30
928.8  44894.28  38773.35  86.37
929.9  45005.21  38862.82  86.35
930.9  45213.30  39055.46  86.38
931.9  45414.99  39237.41  86.40
932.9  45762.26  39496.22  86.31
934.0  45803.71  39573.91  86.40
935.0  45810.36  39589.20  86.42
936.0  45840.15  39566.25  86.31
937.0  45795.75  39519.16  86.29
938.1  45737.41  39514.06  86.39
939.1  45690.54  39481.50  86.41
940.1  45792.08  39572.35  86.42
941.1  45974.44  39790.39  86.55
942.1  46240.75  40012.83  86.53
943.1  46430.63  40178.16  86.53
944.1  46685.58  40406.84  86.55
945.2  46780.86  40470.50  86.51
946.2  46886.15  40553.75  86.49
947.2  46973.00  40628.80  86.49
948.2  47156.13  40810.63  86.54
949.2  47321.63  40921.84  86.48
950.2  47306.35  40955.75  86.58
951.2  47423.88  41069.28  86.60
952.2  47533.98  41170.94  86.61
953.2  47748.84  41321.21  86.54
954.2  47923.43  41441.18  86.47
955.2  47900.28  41468.51  86.57
956.2  47872.99  41517.06  86.72
957.2  47942.90  41567.54  86.70
958.2  48058.20  41649.36  86.66
959.2  48218.40  41769.30  86.63
960.1  48234.68  41818.14  86.70
961.1  48358.04  41905.66  86.66
962.1  48485.63  41966.25  86.55
963.1  48452.08  41994.23  86.67
964.1  48561.50  42130.22  86.76
965.1  48761.92  42227.08  86.60
966.1  48787.80  42276.21  86.65
967.0  48997.06  42422.31  86.58
968.0  48996.14  42475.79  86.69
969.0  49091.60  42543.20  86.66
970.0  49111.31  42622.00  86.79
971.0  49170.03  42676.31  86.79
971.9  49289.72  42724.06  86.68
972.9  49420.88  42798.64  86.60
973.9  49398.70  42885.81  86.82
974.9  49421.14  42894.49  86.79
975.8  49584.23  42980.57  86.68
976.8  49645.86  43056.41  86.73
977.8  49761.42  43177.53  86.77
978.8  49883.25  43254.85  86.71
979.7  50017.88  43319.49  86.61
980.7  50024.37  43463.15  86.88
981.7  50216.51  43636.92  86.90
982.6  50458.51  43849.13  86.90
983.6  51132.02  44217.94  86.48
984.6  51562.39  44719.60  86.73
985.5  52257.60  45221.16  86.54
986.5  53039.20  45767.06  86.29
987.5  54168.11  46713.50  86.24
988.4  55057.20  47730.47  86.69
989.4  56551.39  48686.63  86.09
990.4  58242.03  49873.08  85.63
991.3  59136.61  50785.91  85.88
992.3  60254.81  51646.98  85.71
993.2  62830.60  53480.81  85.12
994.2  63759.15  54397.69  85.32
995.2  64907.22  55581.47  85.63
996.1  65710.99  56440.13  85.89
997.1  66771.58  56022.98  83.90
998.0  65779.20  56186.40  85.42
999.0  67569.18  56367.87  83.42
1000.0  65627.63  56252.25  85.71
1000.9  66106.32  56006.74  84.72
1001.9  66896.78  56625.76  84.65
1002.8  66066.52  55891.71  84.60
1003.8  66771.11  55133.45  82.57
1004.8  64803.12  56132.28  86.62
961.5  59942.22  46439.11  77.47
965.5  58683.65  45917.68  78.25
969.5  56453.82  44810.76  79.38
973.4  54183.76  43635.50  80.53
977.4  52184.81  42793.32  82.00
981.4  51194.56  42470.82  82.96
985.3  50809.00  42308.05  83.27
989.3  50771.60  42268.63  83.25
993.3  50798.35  42213.60  83.10
997.2  50697.53  42030.72  82.90
1001.2  50579.49  41856.75  82.75
1005.2  50486.54  41748.57  82.69
1009.1  50560.95  41803.27  82.68
1013.1  50727.98  41936.81  82.67
1017.1  50849.68  42033.65  82.66
1021.0  50849.88  42020.73  82.64
1025.0  50810.76  41981.20  82.62
1029.0  50630.25  41800.19  82.56
1032.9  50480.43  41664.61  82.54
1036.9  50465.40  41653.15  82.54
1040.9  50583.57  41731.31  82.50
1044.8  50808.96  41894.67  82.46
1048.8  51011.12  42020.52  82.38
1052.7  51152.74  42114.44  82.33
1056.7  51218.34  42138.99  82.27
1060.7  51244.53  42138.45  82.23
1064.6  51271.85  42146.48  82.20
1068.6  51212.40  42072.48  82.15
1072.5  51129.80  41999.16  82.14
1076.5  51067.99  41962.06  82.17
1080.4  51059.78  41944.90  82.15
1084.4  51173.05  41996.23  82.07
1088.3  51270.71  42041.95  82.00
1092.3  51246.52  41953.55  81.87
1096.2  51213.59  41843.02  81.70
1100.2  51236.75  41751.98  81.49
1104.1  51113.59  41438.10  81.07
1108.1  51042.38  41043.81  80.41
1112.0  50923.58  40537.28  79.60
1116.0  50680.63  39905.08  78.74
1119.9  50469.69  39150.99  77.57
1123.9  50510.21  38332.17  75.89
1127.8  50453.76  37259.52  73.85
1131.8  50410.11  36325.81  72.06
1135.7  50431.75  35886.71  71.16
1139.6  50412.72  35904.56  71.22
1143.6  50359.32  36236.86  71.96
1147.5  50310.97  36760.57  73.07
1151.4  50143.03  37225.04  74.24
1155.4  50134.85  37687.71  75.17
1159.3  50144.08  37954.99  75.69
1163.2  49963.74  37872.94  75.80
1167.2  49935.24  37784.78  75.67
1171.1  49953.49  37671.97  75.41
1175.0  49867.99  37452.60  75.10
1179.0  49819.26  37257.71  74.79
1182.9  49917.95  37224.90  74.57
1186.8  49905.20  37190.76  74.52
1190.7  49670.39  37052.92  74.60
1194.7  49404.69  37008.03  74.91
1198.6  49164.89  37140.18  75.54
1202.5  49001.90  37389.55  76.30
1206.4  48884.92  37656.41  77.03
1210.3  48777.95  37884.57  77.67
1214.2  48660.86  38029.21  78.15
1218.2  48519.81  38061.98  78.45
1222.1  48391.40  38031.49  78.59
1226.0  48286.77  37975.40  78.65
1229.9  48199.26  37918.32  78.67
1233.8  48101.55  37828.74  78.64
1237.7  48042.85  37738.70  78.55
1241.6  47954.67  37618.56  78.45
1245.5  47801.28  37423.14  78.29
1249.4  47677.41  37220.86  78.07
1253.3  47548.54  37019.47  77.86
1257.2  47470.59  36873.83  77.68
1261.1  47367.50  36743.54  77.57
1265.0  47247.17  36622.91  77.51
1268.9  47057.34  36456.38  77.47
1272.8  47119.05  36490.45  77.44
1276.7  47328.98  36619.48  77.37
1280.6  47427.97  36628.69  77.23
1284.5  47354.06  36489.22  77.06
1288.4  47330.17  36391.34  76.89
1292.3  47195.50  36212.92  76.73
1296.2  47036.33  35999.40  76.54
1300.1  46870.36  35753.98  76.28
1303.9  46619.88  35447.04  76.03
1307.8  46362.46  35147.46  75.81
1311.7  46091.30  34848.95  75.61
1315.6  45825.96  34566.99  75.43
1319.5  45558.05  34301.51  75.29
1323.3  45306.73  34055.20  75.17
1327.2  45081.41  33813.76  75.01
1331.1  44830.46  33548.15  74.83
