/*** Spectra Vista SIG Data ***/
name= EXB.sig
comm= Averaged Ref/Tar of files: EXB1,EXB2,EXB3
data=
346.4  509.60  82.39  16.17
347.9  536.51  86.18  16.06
349.5  577.20  84.45  14.63
351.1  620.88  82.78  13.33
352.6  679.94  86.02  12.65
354.2  723.22  86.40  11.95
355.7  777.89  91.15  11.72
357.3  842.60  94.78  11.25
358.8  838.80  97.40  11.61
360.4  904.00  101.77  11.26
361.9  943.76  101.23  10.73
363.5  997.20  101.11  10.14
365.1  1040.25  103.10  9.91
366.6  1087.54  100.35  9.23
368.2  1161.70  101.17  8.71
369.7  1204.79  109.70  9.11
371.3  1287.37  109.75  8.53
372.8  1354.56  107.57  7.94
374.4  1435.13  113.03  7.88
375.9  1463.02  111.66  7.63
377.4  1512.41  113.62  7.51
379.0  1578.52  119.24  7.55
380.5  1618.77  111.61  6.89
382.1  1669.58  115.83  6.94
383.6  1726.52  115.29  6.68
385.2  1809.50  115.13  6.36
386.7  1900.67  115.16  6.06
388.3  1991.93  117.76  5.91
389.8  2077.97  126.64  6.09
391.3  2163.95  131.08  6.06
392.9  2236.17  135.42  6.06
394.4  2293.88  142.44  6.21
395.9  2364.42  152.39  6.45
397.5  2493.56  159.78  6.41
399.0  2617.23  168.51  6.44
400.6  2691.33  162.63  6.04
402.1  2739.96  166.50  6.08
403.6  2797.88  167.51  5.99
405.1  2865.39  166.65  5.82
406.7  2979.20  175.02  5.87
408.2  3089.54  179.98  5.83
409.7  3183.04  189.06  5.94
411.3  3295.62  202.27  6.14
412.8  3391.47  211.09  6.22
414.3  3507.27  223.21  6.36
415.8  3622.50  233.00  6.43
417.4  3739.34  238.49  6.38
418.9  3830.42  246.25  6.43
420.4  3913.23  257.56  6.58
421.9  3978.48  262.33  6.59
423.5  4044.22  264.94  6.55
425.0  4110.68  268.80  6.54
426.5  4198.95  270.61  6.44
428.0  4314.36  280.24  6.50
429.5  4445.73  285.98  6.43
431.1  4599.50  295.67  6.43
432.6  4769.72  305.81  6.41
434.1  4937.63  312.62  6.33
435.6  5085.18  326.11  6.41
437.1  5233.80  334.88  6.40
438.6  5364.45  343.48  6.40
440.1  5501.44  357.38  6.50
441.6  5653.06  371.40  6.57
443.1  5799.60  385.29  6.64
444.7  5941.01  398.94  6.72
446.2  6051.88  417.91  6.91
447.7  6161.82  435.53  7.07
449.2  6292.08  451.30  7.17
450.7  6396.00  460.10  7.19
452.2  6529.70  474.74  7.27
453.7  6647.26  489.22  7.36
455.2  6815.62  507.39  7.44
456.7  7013.60  524.71  7.48
458.2  7232.90  543.82  7.52
459.7  7456.75  563.97  7.56
461.2  7667.16  577.74  7.54
462.7  7858.10  597.86  7.61
464.2  8041.02  613.42  7.63
465.7  8240.35  632.59  7.68
467.2  8402.63  642.18  7.64
468.7  8584.00  657.87  7.66
470.2  8698.25  672.44  7.73
471.7  8877.75  693.82  7.82
473.2  9159.71  713.36  7.79
474.6  9386.40  721.49  7.69
476.1  9450.96  724.76  7.67
477.6  9499.75  734.46  7.73
479.1  9557.87  739.78  7.74
480.6  9632.82  746.92  7.75
482.1  9760.73  758.82  7.77
483.6  9935.74  776.31  7.81
485.1  10133.78  797.15  7.87
486.6  10366.07  820.02  7.91
488.0  10621.00  849.98  8.00
489.5  10873.80  882.65  8.12
491.0  11134.31  918.05  8.25
492.5  11404.80  960.34  8.42
494.0  11683.71  1004.98  8.60
495.4  11917.95  1049.62  8.81
496.9  12154.26  1104.87  9.09
498.4  12387.41  1160.38  9.37
499.9  12623.63  1220.57  9.67
501.4  12839.71  1286.65  10.02
502.8  13042.06  1357.03  10.41
504.3  13226.40  1430.88  10.82
505.8  13406.54  1512.93  11.28
507.2  13518.16  1588.11  11.75
508.7  13603.31  1667.06  12.25
510.2  13672.60  1751.23  12.81
511.6  13715.26  1832.72  13.36
513.1  13806.21  1924.36  13.94
514.6  13898.29  2022.66  14.55
516.0  13992.63  2119.51  15.15
517.5  14151.40  2226.39  15.73
519.0  14339.95  2340.92  16.32
520.5  14520.56  2457.16  16.92
521.9  14760.83  2583.23  17.50
523.4  15031.28  2708.95  18.02
524.8  15295.25  2832.29  18.52
526.3  15594.01  2958.26  18.97
527.8  15909.50  3082.11  19.37
529.2  16189.50  3197.05  19.75
530.7  16509.28  3308.84  20.04
532.1  16791.25  3408.35  20.30
533.6  17121.20  3512.49  20.52
535.0  17454.94  3613.07  20.70
536.5  17789.22  3709.05  20.85
538.0  18136.88  3800.21  20.95
539.4  18461.69  3889.20  21.07
540.9  18864.39  3984.35  21.12
542.3  19206.33  4077.32  21.23
543.8  19460.81  4149.59  21.32
545.2  19544.37  4185.07  21.41
546.6  19566.05  4199.12  21.46
548.1  19604.97  4219.03  21.52
549.5  19640.65  4228.36  21.53
551.0  19664.79  4238.41  21.55
552.4  19724.92  4251.04  21.55
553.9  19761.60  4254.00  21.53
555.3  19812.20  4256.23  21.48
556.8  19934.49  4264.22  21.39
558.2  20047.50  4266.90  21.28
559.6  20200.16  4270.72  21.14
561.1  20397.00  4280.68  20.99
562.5  20617.77  4290.21  20.81
564.0  20901.40  4301.27  20.58
565.4  21161.13  4309.49  20.37
566.8  21482.31  4325.46  20.13
568.3  21793.28  4325.42  19.85
569.7  22118.60  4324.02  19.55
571.1  22425.71  4321.77  19.27
572.6  22741.56  4314.60  18.97
574.0  23030.70  4305.84  18.70
575.4  23309.44  4297.05  18.43
576.9  23581.06  4285.74  18.17
578.3  23822.01  4277.13  17.95
579.7  24048.22  4267.49  17.75
581.1  24227.75  4249.18  17.54
582.6  24429.78  4241.32  17.36
584.0  24600.48  4228.41  17.19
585.4  24853.74  4230.11  17.02
586.8  25196.68  4252.21  16.88
588.3  25573.86  4283.76  16.75
589.7  25896.78  4308.41  16.64
591.1  26104.75  4307.95  16.50
592.5  26211.06  4305.09  16.42
594.0  26269.26  4285.49  16.31
595.4  26286.44  4264.95  16.22
596.8  26295.56  4250.53  16.16
598.2  26315.92  4230.97  16.08
599.6  26317.98  4209.83  16.00
601.0  26398.05  4200.17  15.91
602.4  26470.93  4188.58  15.82
603.9  26597.64  4178.62  15.71
605.3  26727.57  4168.73  15.60
606.7  26857.80  4142.40  15.42
608.1  27088.39  4135.90  15.27
609.5  27333.21  4122.56  15.08
610.9  27623.29  4118.76  14.91
612.3  27891.32  4106.62  14.72
613.7  28252.28  4108.09  14.54
615.1  28513.62  4092.98  14.35
616.5  28776.05  4081.41  14.18
617.9  29165.50  4090.01  14.02
619.3  29543.24  4105.59  13.90
620.7  29990.55  4130.09  13.77
622.1  30437.05  4143.84  13.61
623.5  30934.60  4160.63  13.45
624.9  31494.75  4185.83  13.29
626.3  31867.36  4187.56  13.14
627.7  31569.69  4109.47  13.02
629.1  31287.59  4072.46  13.02
630.5  31184.65  4077.47  13.08
631.9  31222.21  4088.91  13.10
633.3  31256.33  4092.77  13.09
634.7  31400.48  4093.60  13.04
636.1  31461.82  4069.63  12.94
637.5  31554.77  4032.66  12.78
638.9  31702.82  3996.11  12.60
640.2  31825.04  3953.52  12.42
641.6  31863.78  3893.14  12.22
643.0  31847.61  3807.57  11.96
644.4  31829.55  3732.37  11.73
645.8  31751.71  3632.78  11.44
647.2  31867.94  3605.21  11.31
648.5  31926.34  3580.82  11.22
649.9  31776.23  3520.94  11.08
651.3  31648.05  3455.42  10.92
652.7  31449.15  3396.94  10.80
654.1  31244.46  3311.16  10.60
655.5  31005.95  3219.16  10.38
656.8  30780.41  3122.57  10.14
658.2  30925.42  3058.92  9.89
659.6  31264.45  3014.85  9.64
660.9  31536.04  2964.12  9.40
662.3  31822.64  2913.48  9.16
663.7  32096.40  2860.48  8.91
665.0  32332.90  2808.60  8.69
666.4  32562.99  2761.32  8.48
667.8  32863.56  2729.04  8.30
669.1  33114.69  2702.40  8.16
670.5  33405.09  2688.47  8.05
671.9  33586.56  2679.74  7.98
673.2  33844.75  2683.31  7.93
674.6  34082.18  2701.09  7.93
676.0  34372.41  2728.24  7.94
677.3  34659.68  2770.98  7.99
678.7  34979.63  2832.48  8.10
680.0  35399.92  2926.21  8.27
681.4  35845.89  3044.18  8.49
682.8  36270.33  3191.07  8.80
684.1  36705.24  3382.39  9.22
685.5  37104.21  3613.04  9.74
686.8  37507.62  3886.14  10.36
688.2  37862.83  4210.88  11.12
689.5  38000.96  4557.93  11.99
690.9  38124.79  4935.16  12.94
692.2  38229.60  5343.10  13.98
693.6  38334.37  5778.25  15.07
694.9  38335.34  6213.69  16.21
696.2  38393.33  6666.78  17.36
697.6  38453.39  7116.45  18.51
698.9  38522.88  7577.15  19.67
700.3  38613.54  8035.99  20.81
701.6  38716.02  8491.26  21.93
703.0  38828.83  8929.81  23.00
704.3  38882.19  9328.41  23.99
705.6  38895.39  9724.08  25.00
707.0  38949.12  10094.54  25.92
708.3  38885.46  10428.25  26.82
709.6  38817.35  10749.30  27.69
711.0  38702.88  11035.95  28.51
712.3  38573.15  11313.32  29.33
713.6  38531.64  11613.78  30.14
714.9  38462.14  11883.97  30.90
716.3  38461.08  12162.31  31.62
717.6  38479.84  12445.75  32.34
718.9  38424.85  12685.17  33.01
720.2  38251.08  12867.95  33.64
721.6  38113.53  13054.74  34.25
722.9  37945.16  13211.61  34.82
724.2  37714.27  13341.76  35.38
725.5  37534.96  13488.88  35.94
726.8  37360.68  13608.84  36.43
728.1  37271.09  13740.94  36.87
729.5  37167.13  13848.96  37.26
730.8  37093.13  13966.73  37.65
732.1  36996.92  14078.27  38.05
733.4  36936.39  14187.78  38.41
734.7  36864.47  14273.29  38.72
736.0  36851.62  14379.27  39.02
737.3  36774.45  14463.77  39.33
738.6  36845.76  14575.46  39.56
739.9  37000.34  14729.41  39.81
741.2  37119.81  14841.37  39.98
742.5  37372.03  15012.11  40.17
743.8  37768.50  15243.69  40.36
745.1  38387.22  15555.02  40.52
746.4  39127.73  15896.55  40.63
747.7  39918.22  16242.64  40.69
749.0  40672.12  16572.99  40.75
750.3  41122.66  16762.97  40.76
751.6  41047.35  16754.69  40.82
752.9  40630.59  16635.14  40.94
754.2  40176.47  16472.47  41.00
755.4  39652.21  16315.38  41.15
756.7  39478.17  16279.57  41.24
758.0  39495.60  16312.66  41.30
759.3  39730.28  16453.01  41.41
760.6  40061.56  16635.28  41.52
761.9  40384.10  16790.86  41.58
763.1  40567.56  16889.26  41.63
764.4  40796.65  17000.58  41.67
765.7  40953.25  17069.43  41.68
767.0  41079.80  17128.09  41.69
768.2  41207.04  17192.45  41.72
769.5  41279.98  17255.64  41.80
770.8  41469.61  17332.64  41.80
772.0  41501.32  17355.38  41.82
773.3  41583.65  17392.48  41.83
774.6  41708.58  17444.38  41.82
775.8  41815.15  17468.08  41.77
777.1  41846.51  17495.05  41.81
778.4  41799.94  17466.66  41.79
779.6  41775.90  17463.87  41.80
780.9  41704.00  17444.80  41.83
782.1  41523.21  17401.52  41.91
783.4  41558.40  17383.25  41.83
784.6  41567.36  17401.91  41.86
785.9  41861.56  17535.53  41.89
787.1  42409.87  17767.36  41.89
788.4  42854.47  17921.65  41.82
789.6  42849.18  17838.05  41.63
790.9  42483.96  17640.70  41.52
792.1  42011.92  17469.10  41.58
793.4  41570.15  17285.59  41.58
794.6  41283.15  17143.77  41.53
795.8  41024.39  17037.64  41.53
797.1  40758.68  16925.67  41.53
798.3  40551.64  16857.72  41.57
799.5  40444.72  16801.99  41.54
800.8  40323.21  16746.68  41.53
802.0  40187.32  16691.46  41.53
803.2  40033.64  16619.14  41.51
804.5  39942.72  16572.85  41.49
805.7  39829.66  16520.39  41.48
806.9  39715.93  16462.55  41.45
808.1  39632.97  16430.61  41.46
809.4  39553.39  16416.07  41.50
810.6  39489.45  16390.92  41.51
811.8  39474.39  16398.81  41.54
813.0  39504.71  16413.76  41.55
814.2  39525.61  16440.84  41.60
815.4  39644.33  16466.24  41.53
816.6  39709.73  16490.29  41.53
817.9  39791.57  16511.34  41.49
819.1  39719.87  16489.29  41.51
820.3  39621.11  16441.26  41.50
821.5  39546.25  16397.89  41.47
822.7  39480.04  16400.53  41.54
823.9  39499.25  16410.64  41.55
825.1  39541.96  16424.12  41.54
826.3  39583.35  16435.97  41.52
827.5  39640.56  16466.80  41.54
828.7  39708.48  16494.43  41.54
829.9  39767.03  16528.67  41.56
831.0  39870.82  16575.09  41.57
832.2  39993.87  16639.77  41.61
833.4  40076.64  16681.38  41.62
834.6  40148.44  16734.38  41.68
835.8  40238.10  16772.49  41.68
837.0  40328.28  16840.08  41.76
838.1  40500.72  16915.21  41.77
839.3  40601.19  16965.78  41.79
840.5  40716.87  17013.76  41.79
841.7  40854.11  17096.22  41.85
842.9  40980.73  17191.04  41.95
844.0  41100.82  17256.88  41.99
845.2  41245.09  17332.23  42.02
846.4  41368.25  17391.14  42.04
847.5  41564.18  17490.22  42.08
848.7  41743.64  17566.30  42.08
849.9  41936.76  17620.08  42.02
851.0  42020.98  17642.95  41.99
852.2  42107.61  17650.37  41.92
853.3  42066.96  17649.22  41.96
854.5  42098.11  17648.76  41.92
855.6  42095.43  17653.43  41.94
856.8  42111.00  17681.47  41.99
857.9  42111.88  17700.85  42.03
859.1  42240.60  17722.08  41.96
860.2  42245.56  17725.51  41.96
861.4  42273.83  17755.99  42.00
862.5  42309.54  17776.21  42.01
863.7  42384.63  17806.00  42.01
864.8  42387.10  17808.70  42.01
865.9  42333.82  17783.71  42.01
867.1  42372.33  17781.59  41.97
868.2  42368.54  17823.43  42.07
869.3  42393.50  17804.94  42.00
870.5  42342.80  17775.39  41.98
871.6  42318.48  17799.26  42.06
872.7  42385.23  17837.21  42.08
873.9  42404.90  17836.33  42.06
875.0  42391.36  17818.49  42.03
876.1  42363.75  17787.64  41.99
877.2  42397.32  17823.64  42.04
878.3  42381.77  17811.86  42.03
879.4  42397.70  17821.70  42.03
880.5  42451.56  17810.83  41.96
881.7  42410.55  17814.85  42.01
882.8  42454.72  17823.86  41.98
883.9  42482.63  17803.41  41.91
885.0  42446.04  17760.38  41.84
886.1  42420.10  17731.56  41.80
887.2  42295.80  17661.86  41.76
888.3  42201.80  17607.31  41.72
889.4  42117.30  17533.13  41.63
890.5  42026.34  17505.72  41.65
891.6  41981.69  17489.21  41.66
892.7  41962.31  17464.09  41.62
893.8  41981.79  17475.91  41.63
894.9  41952.35  17496.73  41.71
896.0  41968.71  17461.72  41.61
897.0  41952.48  17470.35  41.64
898.1  41951.64  17444.40  41.58
899.2  41983.30  17453.35  41.57
900.3  41907.57  17439.11  41.61
901.4  41820.39  17395.62  41.60
902.4  41828.99  17403.34  41.61
903.5  41775.96  17363.23  41.56
904.6  41798.96  17385.36  41.59
905.7  41805.42  17373.35  41.56
906.7  41815.90  17368.69  41.54
907.8  41839.20  17378.76  41.54
908.9  41746.38  17339.91  41.54
909.9  41734.69  17312.17  41.48
911.0  41681.88  17300.43  41.51
912.1  41602.05  17245.34  41.45
913.1  41535.52  17230.72  41.48
914.2  41457.24  17191.78  41.47
915.2  41368.59  17188.13  41.55
916.3  41436.15  17202.92  41.52
917.3  41410.15  17187.72  41.51
918.4  41310.50  17140.13  41.49
919.4  41328.17  17118.79  41.42
920.5  41309.67  17113.37  41.43
921.5  41323.66  17113.54  41.41
922.6  41255.80  17094.95  41.44
923.6  41303.54  17090.44  41.38
924.7  41344.50  17086.77  41.33
925.7  41333.16  17093.64  41.36
926.7  41356.90  17097.11  41.34
927.8  41415.30  17067.05  41.21
928.8  41570.85  17131.14  41.21
929.9  41658.93  17185.11  41.25
930.9  41879.39  17240.43  41.17
931.9  42070.56  17323.35  41.18
932.9  42412.10  17451.85  41.15
934.0  42452.50  17463.76  41.14
935.0  42440.57  17488.37  41.21
936.0  42488.02  17465.85  41.11
937.0  42429.47  17439.66  41.10
938.1  42380.86  17422.18  41.11
939.1  42337.65  17425.38  41.16
940.1  42429.30  17471.89  41.18
941.1  42615.86  17553.21  41.19
942.1  42903.92  17639.81  41.11
943.1  43057.09  17733.52  41.19
944.1  43342.63  17818.78  41.11
945.2  43356.60  17840.87  41.15
946.2  43482.48  17848.57  41.05
947.2  43549.00  17870.78  41.04
948.2  43743.16  17939.63  41.01
949.2  43840.88  17994.93  41.05
950.2  43906.25  17978.38  40.95
951.2  44010.96  18034.69  40.98
952.2  44061.91  18056.71  40.98
953.2  44318.14  18097.93  40.84
954.2  44380.80  18140.25  40.87
955.2  44428.35  18144.14  40.84
956.2  44460.20  18141.01  40.80
957.2  44542.35  18174.56  40.80
958.2  44649.94  18175.25  40.71
959.2  44705.25  18215.10  40.74
960.1  44813.66  18259.05  40.74
961.1  44928.76  18303.41  40.74
962.1  44958.75  18270.88  40.64
963.1  44986.01  18315.47  40.71
964.1  45106.16  18378.66  40.75
965.1  45270.70  18430.55  40.71
966.1  45207.41  18447.56  40.81
967.0  45355.66  18506.41  40.80
968.0  45441.48  18511.96  40.74
969.0  45453.60  18535.25  40.78
970.0  45557.64  18599.76  40.83
971.0  45615.57  18650.28  40.89
971.9  45699.86  18626.34  40.76
972.9  45781.93  18653.72  40.74
973.9  45829.88  18653.74  40.70
974.9  45973.78  18730.66  40.74
975.8  45979.65  18671.90  40.61
976.8  46106.16  18674.44  40.50
977.8  46097.80  18706.72  40.58
978.8  46103.70  18736.58  40.64
979.7  46387.55  18853.27  40.64
980.7  46405.76  18880.42  40.69
981.7  46694.84  18950.39  40.58
982.6  46857.76  19011.96  40.57
983.6  47433.79  19237.93  40.56
984.6  47818.98  19441.55  40.66
985.5  48063.24  19702.03  40.99
986.5  48770.77  19993.11  40.99
987.5  50043.63  20200.76  40.37
988.4  50895.90  20585.99  40.45
989.4  52431.75  20939.41  39.94
990.4  53425.02  21272.69  39.82
991.3  55387.31  21609.57  39.02
992.3  55950.90  21910.84  39.16
993.2  58118.31  22648.94  38.97
994.2  59457.94  22939.80  38.58
995.2  60710.63  22866.74  37.67
996.1  61737.77  22861.31  37.03
997.1  61885.85  22973.76  37.12
998.0  61668.00  22657.28  36.74
999.0  61787.86  22450.79  36.34
1000.0  62252.49  23350.93  37.51
1000.9  62564.91  22507.63  35.97
1001.9  61626.12  21677.26  35.18
1002.8  61885.09  22077.92  35.68
1003.8  61970.58  22460.70  36.24
1004.8  62064.96  22209.52  35.78
961.5  55881.62  20915.32  37.43
965.5  54589.44  20840.66  38.18
969.5  52393.79  20600.92  39.32
973.4  50126.74  20089.76  40.08
977.4  48345.52  19541.00  40.42
981.4  47464.01  19271.29  40.60
985.3  47176.98  19082.33  40.45
989.3  47304.75  19008.57  40.18
993.3  47508.66  18959.93  39.91
997.2  47541.75  18851.71  39.65
1001.2  47520.33  18782.14  39.52
1005.2  47455.76  18765.72  39.54
1009.1  47529.68  18819.87  39.60
1013.1  47663.39  18916.33  39.69
1017.1  47785.75  18988.66  39.74
1021.0  47816.50  18992.78  39.72
1025.0  47819.30  18986.22  39.70
1029.0  47652.00  18912.79  39.69
1032.9  47495.63  18855.76  39.70
1036.9  47497.16  18868.69  39.73
1040.9  47608.97  18943.07  39.79
1044.8  47827.54  19053.77  39.84
1048.8  48004.98  19138.79  39.87
1052.7  48133.54  19201.97  39.89
1056.7  48188.20  19228.81  39.90
1060.7  48194.60  19236.61  39.91
1064.6  48198.22  19250.63  39.94
1068.6  48113.17  19231.01  39.97
1072.5  48026.55  19197.19  39.97
1076.5  47975.49  19181.10  39.98
1080.4  47966.69  19172.83  39.97
1084.4  48069.59  19186.34  39.91
1088.3  48170.15  19216.18  39.89
1092.3  48152.58  19192.18  39.86
1096.2  48142.77  19164.18  39.81
1100.2  48183.64  19176.38  39.80
1104.1  48079.94  19131.26  39.79
1108.1  48035.13  19097.10  39.76
1112.0  47943.86  19027.76  39.69
1116.0  47742.57  18906.44  39.60
1119.9  47581.47  18796.85  39.50
1123.9  47666.30  18775.18  39.39
1127.8  47639.04  18694.40  39.24
1131.8  47617.38  18594.07  39.05
1135.7  47659.94  18485.06  38.79
1139.6  47675.62  18319.38  38.43
1143.6  47638.82  18141.66  38.08
1147.5  47616.88  17991.84  37.78
1151.4  47500.80  17806.62  37.49
1155.4  47513.75  17726.04  37.31
1159.3  47522.52  17696.41  37.24
1163.2  47363.89  17598.89  37.16
1167.2  47347.50  17561.94  37.09
1171.1  47369.57  17541.69  37.03
1175.0  47314.40  17490.09  36.97
1179.0  47268.08  17464.92  36.95
1182.9  47358.68  17491.25  36.93
1186.8  47350.70  17472.63  36.90
1190.7  47139.70  17372.51  36.85
1194.7  46883.87  17259.83  36.81
1198.6  46652.76  17167.92  36.80
1202.5  46480.48  17118.03  36.83
1206.4  46340.80  17091.44  36.88
1210.3  46236.01  17069.10  36.92
1214.2  46114.66  17043.20  36.96
1218.2  45952.68  17005.74  37.01
1222.1  45800.88  16979.79  37.07
1226.0  45686.61  16963.38  37.13
1229.9  45598.02  16949.40  37.17
1233.8  45484.04  16920.97  37.20
1237.7  45416.66  16894.82  37.20
1241.6  45332.53  16868.08  37.21
1245.5  45166.97  16807.84  37.21
1249.4  45023.84  16756.03  37.22
1253.3  44894.25  16725.37  37.26
1257.2  44816.00  16706.43  37.28
1261.1  44716.86  16670.77  37.28
1265.0  44587.73  16621.06  37.28
1268.9  44400.64  16537.88  37.25
1272.8  44460.00  16542.35  37.21
1276.7  44653.74  16595.03  37.16
1280.6  44733.81  16602.67  37.11
1284.5  44649.07  16542.30  37.05
1288.4  44631.63  16503.75  36.98
1292.3  44511.50  16419.33  36.89
1296.2  44360.33  16313.86  36.78
1300.1  44197.71  16192.08  36.64
1303.9  43963.66  16017.46  36.43
1307.8  43715.49  15836.52  36.23
1311.7  43464.03  15655.69  36.02
1315.6  43214.30  15462.78  35.78
1319.5  42962.15  15252.19  35.50
1323.3  42734.84  15033.39  35.18
1327.2  42525.95  14813.97  34.84
1331.1  42285.13  14581.16  34.48
1335.0  41985.32  14316.84  34.10
1338.8  41775.29  14079.07  33.70
1342.7  41609.18  13855.07  33.30
1346.5  41242.98  13545.05  32.84
1350.4  40931.78  13246.58  32.36
1354.3  40517.39  12906.15  31.85
1358.1  40047.65  12579.05  31.41
1362.0  39764.09  12345.06  31.05
1365.8  39670.89  12177.49  30.70
1369.7  39786.92  12050.31  30.29
