/*** Spectra Vista SIG Data ***/
name= RS3.sig
comm= Averaged Ref/Tar of files: RD4S7,RD4S8,RD4S9
data=
346.4  300.98  83.23  27.65
347.9  318.46  85.76  26.93
349.5  343.20  84.45  24.61
351.1  374.40  86.94  23.22
352.6  409.54  90.24  22.03
354.2  435.24  98.18  22.56
355.7  456.30  97.88  21.45
357.3  495.85  96.16  19.39
358.8  506.78  97.39  19.22
360.4  548.73  100.37  18.29
361.9  565.91  104.47  18.46
363.5  593.82  108.03  18.19
365.1  620.68  107.26  17.28
366.6  647.34  107.26  16.57
368.2  683.25  101.62  14.87
369.7  726.46  102.74  14.14
371.3  772.09  107.99  13.99
372.8  813.40  111.55  13.71
374.4  856.07  110.81  12.94
375.9  883.77  116.51  13.18
377.4  909.07  108.85  11.97
379.0  945.20  114.15  12.08
380.5  966.34  109.97  11.38
382.1  1004.70  107.96  10.75
383.6  1031.94  105.46  10.22
385.2  1082.13  107.43  9.93
386.7  1134.44  108.30  9.55
388.3  1183.47  110.15  9.31
389.8  1236.62  113.09  9.15
391.3  1283.89  114.37  8.91
392.9  1324.35  117.21  8.85
394.4  1356.15  121.07  8.93
395.9  1406.72  128.95  9.17
397.5  1480.96  133.08  8.99
399.0  1545.00  134.73  8.72
400.6  1586.22  128.67  8.11
402.1  1624.11  125.22  7.71
403.6  1645.88  119.88  7.28
405.1  1688.62  117.60  6.96
406.7  1751.68  121.56  6.94
408.2  1815.41  123.25  6.79
409.7  1871.52  125.14  6.69
411.3  1932.39  131.58  6.81
412.8  1975.40  130.82  6.62
414.3  2044.89  134.77  6.59
415.8  2106.25  138.33  6.57
417.4  2169.48  142.69  6.58
418.9  2222.61  145.05  6.53
420.4  2266.93  145.23  6.41
421.9  2296.58  142.62  6.21
423.5  2335.00  148.51  6.36
425.0  2376.73  143.84  6.05
426.5  2428.43  141.61  5.83
428.0  2489.68  141.49  5.68
429.5  2574.41  144.57  5.62
431.1  2658.69  147.83  5.56
432.6  2748.21  151.75  5.52
434.1  2843.23  151.69  5.34
435.6  2926.69  156.35  5.34
437.1  3007.88  160.16  5.32
438.6  3080.14  166.37  5.40
440.1  3160.11  168.38  5.33
441.6  3238.04  170.61  5.27
443.1  3312.90  173.34  5.23
444.7  3389.72  176.73  5.21
446.2  3441.68  176.82  5.14
447.7  3501.62  182.96  5.22
449.2  3564.00  184.03  5.16
450.7  3621.28  183.04  5.05
452.2  3682.41  180.78  4.91
453.7  3758.53  179.79  4.78
455.2  3840.40  183.33  4.77
456.7  3952.96  185.86  4.70
458.2  4072.55  189.90  4.66
459.7  4195.63  193.67  4.62
461.2  4317.19  198.62  4.60
462.7  4419.51  200.96  4.55
464.2  4528.34  205.94  4.55
465.7  4636.49  211.53  4.56
467.2  4730.69  216.88  4.58
468.7  4831.00  220.80  4.57
470.2  4904.47  228.74  4.66
471.7  4994.63  234.65  4.70
473.2  5152.65  241.21  4.68
474.6  5277.65  238.00  4.51
476.1  5315.90  235.46  4.43
477.6  5339.08  234.90  4.40
479.1  5368.13  233.06  4.34
480.6  5404.66  234.58  4.34
482.1  5475.21  234.30  4.28
483.6  5562.12  235.41  4.23
485.1  5668.27  234.40  4.14
486.6  5791.79  238.34  4.12
488.0  5923.94  242.88  4.10
489.5  6066.75  248.06  4.09
491.0  6201.68  251.98  4.06
492.5  6345.54  258.77  4.08
494.0  6492.59  260.73  4.02
495.4  6616.50  266.20  4.02
496.9  6746.80  268.98  3.99
498.4  6868.17  273.74  3.99
499.9  6989.37  278.69  3.99
501.4  7101.28  282.92  3.98
502.8  7211.42  286.91  3.98
504.3  7308.90  292.32  4.00
505.8  7405.94  294.35  3.97
507.2  7465.75  295.85  3.96
508.7  7504.76  301.63  4.02
510.2  7549.77  301.45  3.99
511.6  7573.93  299.84  3.96
513.1  7619.32  302.44  3.97
514.6  7684.06  305.10  3.97
516.0  7736.05  304.69  3.94
517.5  7828.25  307.94  3.93
519.0  7931.31  306.67  3.87
520.5  8033.54  311.16  3.87
521.9  8170.54  317.99  3.89
523.4  8322.71  323.25  3.88
524.8  8476.58  326.51  3.85
526.3  8648.70  332.95  3.85
527.8  8824.59  339.31  3.85
529.2  8983.24  346.80  3.86
530.7  9161.81  352.39  3.85
532.1  9325.79  358.44  3.84
533.6  9502.17  366.12  3.85
535.0  9689.01  373.99  3.86
536.5  9867.79  383.70  3.89
538.0  10049.16  389.10  3.87
539.4  10231.78  397.56  3.89
540.9  10443.93  409.62  3.92
542.3  10618.63  416.50  3.92
543.8  10743.19  417.49  3.89
545.2  10787.72  417.38  3.87
546.6  10787.25  419.68  3.89
548.1  10798.67  418.21  3.87
549.5  10797.77  417.19  3.86
551.0  10799.56  417.53  3.87
552.4  10821.09  416.99  3.85
553.9  10825.03  420.05  3.88
555.3  10846.78  419.09  3.86
556.8  10905.15  421.90  3.87
558.2  10950.19  425.70  3.89
559.6  11027.13  428.99  3.89
561.1  11132.88  432.03  3.88
562.5  11245.54  439.51  3.91
564.0  11402.49  448.87  3.94
565.4  11543.72  458.75  3.97
566.8  11723.98  471.63  4.02
568.3  11891.25  482.86  4.06
569.7  12076.06  495.22  4.10
571.1  12249.63  510.35  4.17
572.6  12426.21  526.61  4.24
574.0  12599.40  542.96  4.31
575.4  12769.31  559.35  4.38
576.9  12924.45  581.19  4.50
578.3  13072.88  603.70  4.62
579.7  13214.09  626.00  4.74
581.1  13332.32  650.87  4.88
582.6  13457.72  675.79  5.02
584.0  13568.00  704.12  5.19
585.4  13711.91  738.87  5.39
586.8  13919.40  776.86  5.58
588.3  14140.62  812.14  5.74
589.7  14327.82  849.26  5.93
591.1  14447.26  887.62  6.14
592.5  14518.46  923.71  6.36
594.0  14547.66  960.82  6.60
595.4  14566.76  997.86  6.85
596.8  14575.28  1040.47  7.14
598.2  14586.43  1086.79  7.45
599.6  14584.19  1138.22  7.80
601.0  14621.32  1193.25  8.16
602.4  14656.48  1254.78  8.56
603.9  14720.65  1317.20  8.95
605.3  14787.56  1382.97  9.35
606.7  14850.90  1458.96  9.82
608.1  14956.71  1541.97  10.31
609.5  15087.13  1629.62  10.80
610.9  15240.09  1727.59  11.34
612.3  15378.24  1830.42  11.90
613.7  15565.24  1945.04  12.50
615.1  15698.61  2058.26  13.11
616.5  15834.13  2175.31  13.74
617.9  16040.22  2310.38  14.40
619.3  16231.37  2448.16  15.08
620.7  16465.73  2605.10  15.82
622.1  16702.31  2748.89  16.46
623.5  16967.59  2875.13  16.94
624.9  17268.83  3012.77  17.45
626.3  17464.11  3146.20  18.02
627.7  17297.90  3229.41  18.67
629.1  17131.07  3318.35  19.37
630.5  17065.89  3429.51  20.10
631.9  17068.07  3559.72  20.86
633.3  17072.86  3697.40  21.66
634.7  17143.21  3839.93  22.40
636.1  17175.19  3967.09  23.10
637.5  17214.12  4081.37  23.71
638.9  17282.65  4201.32  24.31
640.2  17345.48  4308.26  24.84
641.6  17368.65  4401.07  25.34
643.0  17347.86  4478.68  25.82
644.4  17346.99  4553.05  26.25
645.8  17303.92  4611.47  26.65
647.2  17371.51  4706.18  27.09
648.5  17405.34  4804.91  27.61
649.9  17326.73  4876.66  28.15
651.3  17269.88  4973.52  28.80
652.7  17194.65  5058.86  29.42
654.1  17110.53  5030.21  29.40
655.5  17000.34  4959.39  29.17
656.8  16892.62  4888.53  28.94
658.2  16993.27  4882.84  28.73
659.6  17201.86  4911.59  28.55
660.9  17374.35  4928.66  28.37
662.3  17542.46  4938.35  28.15
663.7  17706.15  4942.00  27.91
665.0  17850.15  4931.92  27.63
666.4  17993.38  4924.34  27.37
667.8  18172.37  4940.77  27.19
669.1  18340.58  4954.35  27.01
670.5  18513.22  4989.96  26.95
671.9  18629.28  5025.20  26.97
673.2  18784.35  5087.69  27.08
674.6  18934.77  5177.51  27.34
676.0  19107.41  5294.82  27.71
677.3  19274.00  5443.93  28.24
678.7  19460.75  5640.03  28.98
680.0  19693.92  5904.39  29.98
681.4  19949.74  6235.31  31.26
682.8  20190.63  6653.92  32.96
684.1  20434.05  7151.04  35.00
685.5  20661.50  7711.70  37.32
686.8  20876.79  8316.11  39.83
688.2  21063.54  8936.59  42.43
689.5  21136.22  9513.17  45.01
690.9  21189.20  10068.64  47.52
692.2  21241.50  10582.50  49.82
693.6  21283.52  11071.59  52.02
694.9  21276.87  11487.00  53.99
696.2  21306.77  11874.56  55.73
697.6  21332.37  12221.28  57.29
698.9  21357.60  12545.98  58.74
700.3  21390.71  12850.53  60.08
701.6  21429.47  13125.14  61.25
703.0  21471.99  13376.86  62.30
704.3  21485.34  13582.66  63.22
705.6  21483.00  13759.91  64.05
707.0  21491.89  13928.22  64.81
708.3  21438.50  14046.33  65.52
709.6  21384.38  14138.69  66.12
711.0  21305.08  14210.32  66.70
712.3  21214.65  14261.54  67.22
713.6  21181.23  14336.62  67.69
714.9  21115.22  14394.99  68.17
716.3  21103.70  14466.28  68.55
717.6  21104.62  14540.71  68.90
718.9  21048.57  14569.30  69.22
720.2  20942.08  14532.28  69.39
721.6  20841.80  14524.22  69.69
722.9  20742.62  14497.23  69.89
724.2  20595.93  14447.91  70.15
725.5  20483.80  14425.31  70.42
726.8  20382.67  14377.02  70.54
728.1  20319.64  14360.87  70.67
729.5  20266.07  14337.81  70.75
730.8  20224.65  14328.08  70.84
732.1  20162.40  14309.88  70.97
733.4  20118.51  14300.04  71.08
734.7  20079.83  14278.63  71.11
736.0  20072.78  14294.70  71.21
737.3  20029.99  14296.56  71.38
738.6  20078.49  14351.33  71.48
739.9  20158.75  14462.67  71.74
741.2  20237.49  14537.07  71.83
742.5  20374.08  14671.05  72.01
743.8  20609.53  14895.27  72.27
745.1  20972.39  15193.42  72.44
746.4  21401.61  15526.24  72.55
747.7  21849.92  15847.94  72.53
749.0  22279.29  16143.94  72.46
750.3  22537.39  16277.03  72.22
751.6  22489.95  16222.90  72.13
752.9  22268.69  16076.80  72.19
754.2  22020.08  15925.63  72.32
755.4  21752.37  15773.17  72.51
756.7  21671.76  15763.37  72.74
758.0  21695.15  15828.72  72.96
759.3  21840.20  15986.20  73.20
760.6  22048.18  16187.25  73.42
761.9  22241.80  16375.19  73.62
763.1  22361.42  16489.73  73.74
764.4  22495.96  16632.50  73.94
765.7  22607.00  16739.67  74.05
767.0  22707.99  16834.38  74.13
768.2  22787.52  16918.27  74.24
769.5  22847.70  16989.08  74.36
770.8  22968.83  17099.07  74.44
772.0  23007.05  17149.29  74.54
773.3  23073.57  17219.32  74.63
774.6  23142.26  17318.53  74.84
775.8  23217.35  17384.36  74.88
777.1  23250.39  17426.09  74.95
778.4  23228.21  17419.74  74.99
779.6  23232.20  17454.44  75.13
780.9  23206.00  17468.27  75.27
782.1  23123.66  17441.70  75.43
783.4  23129.60  17478.10  75.57
784.6  23156.94  17526.31  75.68
785.9  23323.57  17718.09  75.97
787.1  23657.54  17995.83  76.07
788.4  23905.77  18160.14  75.97
789.6  23910.81  18059.71  75.53
790.9  23703.38  17854.42  75.32
792.1  23443.52  17682.52  75.43
793.4  23200.49  17523.94  75.53
794.6  23038.97  17413.81  75.58
795.8  22887.63  17321.92  75.68
797.1  22746.90  17241.04  75.80
798.3  22633.05  17183.82  75.92
799.5  22585.37  17158.97  75.97
800.8  22510.70  17117.71  76.04
802.0  22435.02  17065.71  76.07
803.2  22355.92  17010.87  76.09
804.5  22286.88  16970.83  76.15
805.7  22221.30  16926.21  76.17
806.9  22163.45  16874.63  76.14
808.1  22106.40  16844.96  76.20
809.4  22068.13  16835.94  76.29
810.6  22012.90  16820.44  76.41
811.8  21998.30  16811.56  76.42
813.0  22023.85  16824.13  76.39
814.2  22034.44  16852.34  76.48
815.4  22094.68  16881.54  76.41
816.6  22117.02  16885.72  76.35
817.9  22159.15  16877.02  76.16
819.1  22110.24  16821.83  76.08
820.3  22040.68  16742.37  75.96
821.5  21976.08  16687.59  75.94
822.7  21945.91  16647.02  75.85
823.9  21946.82  16627.92  75.76
825.1  21950.55  16602.67  75.64
826.3  21976.62  16589.82  75.49
827.5  21980.34  16577.15  75.42
828.7  22017.96  16548.54  75.16
829.9  22041.74  16533.55  75.01
831.0  22083.57  16533.42  74.87
832.2  22125.60  16547.32  74.79
833.4  22169.16  16546.77  74.64
834.6  22207.03  16562.50  74.58
835.8  22252.39  16574.04  74.48
837.0  22278.53  16602.34  74.52
838.1  22362.84  16660.84  74.50
839.3  22423.92  16685.27  74.41
840.5  22463.55  16724.53  74.45
841.7  22539.94  16783.87  74.46
842.9  22590.38  16848.14  74.58
844.0  22640.76  16877.47  74.54
845.2  22733.43  16948.08  74.55
846.4  22779.40  16987.13  74.57
847.5  22894.92  17066.74  74.54
848.7  22986.81  17130.38  74.52
849.9  23090.42  17167.99  74.35
851.0  23115.33  17165.51  74.26
852.2  23147.70  17177.60  74.21
853.3  23146.04  17141.34  74.06
854.5  23138.69  17117.87  73.98
855.6  23131.08  17122.79  74.03
856.8  23140.08  17138.55  74.06
857.9  23125.66  17130.12  74.07
859.1  23200.40  17175.65  74.03
860.2  23210.88  17168.68  73.97
861.4  23238.19  17193.10  73.99
862.5  23256.69  17200.20  73.96
863.7  23299.75  17225.67  73.93
864.8  23308.25  17239.46  73.96
865.9  23278.88  17215.12  73.95
867.1  23298.62  17218.27  73.90
868.2  23308.26  17219.02  73.88
869.3  23327.36  17196.33  73.72
870.5  23292.12  17175.54  73.74
871.6  23289.32  17172.21  73.73
872.7  23336.56  17199.68  73.70
873.9  23363.45  17196.26  73.60
875.0  23323.98  17170.01  73.62
876.1  23338.58  17149.87  73.48
877.2  23352.60  17146.91  73.43
878.3  23349.40  17143.86  73.42
879.4  23378.40  17131.17  73.28
880.5  23403.42  17119.73  73.15
881.7  23389.60  17099.42  73.11
882.8  23432.80  17097.90  72.97
883.9  23448.21  17075.96  72.82
885.0  23450.02  17022.19  72.59
886.1  23424.56  16979.97  72.49
887.2  23365.96  16882.40  72.25
888.3  23308.56  16801.59  72.08
889.4  23276.53  16720.96  71.84
890.5  23201.38  16678.46  71.89
891.6  23192.34  16644.71  71.77
892.7  23215.89  16613.62  71.56
893.8  23203.09  16623.13  71.64
894.9  23213.03  16615.38  71.58
896.0  23219.08  16577.01  71.39
897.0  23233.59  16565.57  71.30
898.1  23265.19  16554.04  71.15
899.2  23265.94  16525.57  71.03
900.3  23202.69  16470.06  70.98
901.4  23182.22  16425.22  70.85
902.4  23192.03  16418.45  70.79
903.5  23179.29  16393.47  70.72
904.6  23181.33  16358.05  70.57
905.7  23181.52  16340.93  70.49
906.7  23201.08  16310.13  70.30
907.8  23205.26  16304.38  70.26
908.9  23171.38  16229.52  70.04
909.9  23142.01  16210.96  70.05
911.0  23135.89  16153.61  69.82
912.1  23112.25  16093.99  69.63
913.1  23069.80  16043.80  69.54
914.2  23011.95  15984.60  69.46
915.2  23006.97  15954.70  69.35
916.3  23024.55  15923.22  69.16
917.3  23013.50  15856.88  68.90
918.4  22970.06  15786.17  68.72
919.4  22959.52  15736.06  68.54
920.5  22948.10  15689.21  68.37
921.5  22992.94  15631.09  67.98
922.6  22908.19  15561.42  67.93
923.6  22998.44  15528.12  67.52
924.7  22983.50  15478.57  67.35
925.7  22963.47  15424.10  67.17
926.7  22993.12  15358.00  66.79
927.8  23046.06  15299.76  66.39
928.8  23129.73  15279.57  66.06
929.9  23214.82  15246.68  65.68
930.9  23325.95  15247.69  65.37
931.9  23422.51  15250.58  65.11
932.9  23590.71  15289.76  64.81
934.0  23628.34  15221.81  64.42
935.0  23647.48  15142.87  64.04
936.0  23654.47  15087.37  63.78
937.0  23611.58  15003.56  63.54
938.1  23603.32  14907.36  63.16
939.1  23584.34  14832.80  62.89
940.1  23673.00  14789.76  62.48
941.1  23749.98  14758.08  62.14
942.1  23913.97  14778.71  61.80
943.1  24007.97  14760.74  61.48
944.1  24139.96  14774.13  61.20
945.2  24191.16  14686.56  60.71
946.2  24274.20  14596.18  60.13
947.2  24295.69  14546.65  59.87
948.2  24407.51  14493.12  59.38
949.2  24434.31  14444.19  59.11
950.2  24503.20  14347.86  58.56
951.2  24568.74  14274.29  58.10
952.2  24624.11  14169.16  57.54
953.2  24717.31  14144.74  57.23
954.2  24858.68  14090.10  56.68
955.2  24833.48  14000.36  56.38
956.2  24781.87  13920.43  56.17
957.2  24889.44  13827.82  55.56
958.2  24934.17  13770.05  55.23
959.2  25016.63  13757.34  54.99
960.1  25036.42  13745.35  54.90
961.1  25110.32  13714.79  54.62
962.1  25088.91  13684.75  54.55
963.1  25119.92  13679.44  54.46
964.1  25214.63  13634.57  54.07
965.1  25330.49  13657.94  53.92
966.1  25308.67  13657.96  53.97
967.0  25429.11  13675.48  53.78
968.0  25412.72  13647.69  53.70
969.0  25476.70  13715.97  53.84
970.0  25548.92  13690.84  53.59
971.0  25553.38  13722.64  53.70
971.9  25577.75  13761.13  53.80
972.9  25632.47  13700.16  53.45
973.9  25687.84  13727.57  53.44
974.9  25707.07  13764.30  53.54
975.8  25785.50  13740.92  53.29
976.8  25887.84  13746.86  53.10
977.8  25820.50  13787.93  53.40
978.8  25860.98  13792.52  53.33
979.7  25944.03  13871.04  53.47
980.7  26085.84  13933.66  53.41
981.7  26216.93  14011.35  53.44
982.6  26357.49  14159.75  53.72
983.6  26637.96  14256.94  53.52
984.6  26867.99  14402.05  53.60
985.5  27228.96  14696.30  53.97
986.5  27586.71  14828.84  53.75
987.5  28229.74  15324.72  54.29
988.4  29129.10  15748.92  54.07
989.4  29461.65  15846.04  53.79
990.4  30215.79  16309.71  53.98
991.3  31016.90  16974.08  54.73
992.3  32083.73  16876.56  52.60
993.2  32873.87  17233.53  52.42
994.2  33903.68  17542.20  51.74
995.2  33992.36  18091.95  53.22
996.1  34230.84  18134.20  52.98
997.1  34851.51  18109.75  51.96
998.0  34260.00  17906.56  52.27
999.0  34687.92  17777.56  51.25
1000.0  34688.89  17700.71  51.03
1000.9  35217.36  18677.66  53.04
1001.9  35272.85  17731.02  50.27
1002.8  34914.90  17896.50  51.26
1003.8  33603.76  18154.76  54.03
1004.8  35367.90  18497.79  52.30
961.5  31131.28  14598.83  46.89
965.5  30535.97  14557.18  47.67
969.5  29322.48  14285.31  48.72
973.4  27903.28  13929.10  49.92
977.4  26904.56  13496.58  50.16
981.4  26534.70  13347.06  50.30
985.3  26407.57  13435.43  50.88
989.3  26474.11  13644.15  51.54
993.3  26619.54  13890.71  52.18
997.2  26659.40  14065.56  52.76
1001.2  26636.74  14191.10  53.28
1005.2  26603.49  14304.30  53.77
1009.1  26619.65  14456.79  54.31
1013.1  26716.01  14667.97  54.90
1017.1  26794.94  14886.08  55.56
1021.0  26801.46  15060.40  56.19
1025.0  26791.13  15219.40  56.81
1029.0  26701.37  15322.65  57.39
1032.9  26612.69  15425.02  57.96
1036.9  26609.51  15565.40  58.50
1040.9  26674.31  15752.10  59.05
1044.8  26787.82  15974.14  59.63
1048.8  26888.29  16171.94  60.14
1052.7  26960.57  16340.32  60.61
1056.7  26977.24  16457.90  61.01
1060.7  26985.60  16541.18  61.30
1064.6  27010.97  16619.17  61.53
1068.6  26982.88  16629.35  61.63
1072.5  26926.21  16596.96  61.64
1076.5  26904.28  16581.30  61.63
1080.4  26907.72  16541.18  61.47
1084.4  26967.74  16503.49  61.20
1088.3  27046.80  16464.80  60.88
1092.3  27030.17  16350.50  60.49
1096.2  27021.53  16226.51  60.05
1100.2  27064.25  16117.75  59.55
1104.1  26999.93  15961.14  59.12
1108.1  26976.31  15821.73  58.65
1112.0  26929.62  15643.53  58.09
1116.0  26827.19  15413.28  57.45
1119.9  26743.36  15163.16  56.70
1123.9  26789.11  14930.49  55.73
1127.8  26776.32  14589.44  54.49
1131.8  26765.25  14126.21  52.78
1135.7  26806.82  13585.67  50.68
1139.6  26802.37  12999.34  48.50
1143.6  26782.94  12433.14  46.42
1147.5  26783.56  11947.93  44.61
1151.4  26689.51  11518.95  43.16
1155.4  26684.50  11245.50  42.14
1159.3  26717.33  11067.99  41.43
1163.2  26640.39  10901.44  40.92
1167.2  26631.42  10824.14  40.64
1171.1  26649.11  10761.08  40.38
1175.0  26624.79  10681.69  40.12
1179.0  26612.16  10621.26  39.91
1182.9  26679.08  10592.24  39.70
1186.8  26688.13  10536.32  39.48
1190.7  26563.51  10436.04  39.29
1194.7  26418.25  10337.12  39.13
1198.6  26292.42  10277.19  39.09
1202.5  26222.77  10245.71  39.07
1206.4  26156.30  10230.34  39.11
1210.3  26101.80  10236.00  39.22
1214.2  26061.58  10252.19  39.34
1218.2  25980.18  10267.42  39.52
1222.1  25898.70  10302.06  39.78
1226.0  25846.71  10354.38  40.06
1229.9  25808.88  10390.12  40.26
1233.8  25765.00  10417.88  40.43
1237.7  25743.41  10455.37  40.61
1241.6  25703.07  10490.59  40.81
1245.5  25624.12  10502.01  40.98
1249.4  25550.35  10501.47  41.10
1253.3  25491.83  10507.29  41.22
1257.2  25468.72  10518.28  41.30
1261.1  25410.02  10512.18  41.37
1265.0  25340.06  10491.97  41.40
1268.9  25238.59  10449.85  41.40
1272.8  25273.80  10450.00  41.35
1276.7  25394.86  10466.64  41.22
1280.6  25450.19  10440.81  41.02
1284.5  25408.33  10365.36  40.80
1288.4  25396.88  10292.47  40.53
1292.3  25335.75  10175.00  40.16
1296.2  25253.77  10038.18  39.75
1300.1  25154.45  9876.46  39.26
1303.9  25021.28  9685.71  38.71
1307.8  24888.83  9473.00  38.06
1311.7  24744.05  9247.28  37.37
1315.6  24606.58  9011.97  36.62
1319.5  24454.91  8745.47  35.76
1323.3  24310.87  8483.15  34.89
1327.2  24198.13  8223.42  33.98
1331.1  24066.72  7946.31  33.02
1335.0  23889.51  7661.08  32.07
1338.8  23760.57  7415.91  31.21
1342.7  23672.67  7195.45  30.40
1346.5  23478.13  6958.39  29.64
1350.4  23310.26  6759.03  29.00
1354.3  23083.45  6548.57  28.37
1358.1  22838.31  6323.80  27.69
1362.0  22679.75  6116.05  26.97
1365.8  22617.02  5927.60  26.21
1369.7  22674.59  5751.11  25.36
1373.5  22638.01  5516.78  24.37
1377.4  22496.49  5204.35  23.13
1381.2  22378.35  4815.86  21.52
1385.1  22350.32  4409.25  19.73
1389.0  22288.46  4007.88  17.98
