/*** Spectra Vista SIG Data ***/
name= RS5.sig
comm= SIG file reprocesed for matching/overlap;Averaged Ref/Tar of files: RD4S13,RD4S14,RD4S15
data=
346.4  300.98  71.77  23.85
347.9  318.46  74.88  23.51
349.5  343.20  73.21  21.33
351.1  374.40  74.46  19.89
352.6  409.54  74.22  18.12
354.2  435.24  79.85  18.35
355.7  456.30  86.21  18.89
357.3  495.85  87.38  17.62
358.8  506.78  85.74  16.92
360.4  548.73  89.58  16.32
361.9  565.91  91.01  16.08
363.5  593.82  90.49  15.24
365.1  620.68  88.77  14.30
366.6  647.34  92.53  14.29
368.2  683.25  91.32  13.37
369.7  726.46  87.94  12.11
371.3  772.09  88.24  11.43
372.8  813.40  93.40  11.48
374.4  856.07  97.46  11.38
375.9  883.77  92.24  10.44
377.4  909.07  93.24  10.26
379.0  945.20  89.96  9.52
380.5  966.34  92.33  9.55
382.1  1004.70  90.62  9.02
383.6  1031.94  92.99  9.01
385.2  1082.13  89.10  8.23
386.7  1134.44  84.11  7.41
388.3  1183.47  89.13  7.53
389.8  1236.62  92.96  7.52
391.3  1283.89  93.20  7.26
392.9  1324.35  98.63  7.45
394.4  1356.15  100.89  7.44
395.9  1406.72  104.67  7.44
397.5  1480.96  112.40  7.59
399.0  1545.00  110.01  7.12
400.6  1586.22  110.56  6.97
402.1  1624.11  100.45  6.18
403.6  1645.88  102.61  6.23
405.1  1688.62  101.15  5.99
406.7  1751.68  102.14  5.83
408.2  1815.41  104.84  5.78
409.7  1871.52  104.83  5.60
411.3  1932.39  106.18  5.49
412.8  1975.40  110.60  5.60
414.3  2044.89  111.61  5.46
415.8  2106.25  115.67  5.49
417.4  2169.48  123.80  5.71
418.9  2222.61  121.78  5.48
420.4  2266.93  119.97  5.29
421.9  2296.58  122.62  5.34
423.5  2335.00  121.42  5.20
425.0  2376.73  117.47  4.94
426.5  2428.43  117.53  4.84
428.0  2489.68  114.94  4.62
429.5  2574.41  116.39  4.52
431.1  2658.69  118.68  4.46
432.6  2748.21  120.99  4.40
434.1  2843.23  123.97  4.36
435.6  2926.69  126.42  4.32
437.1  3007.88  126.36  4.20
438.6  3080.14  131.52  4.27
440.1  3160.11  133.49  4.22
441.6  3238.04  135.10  4.17
443.1  3312.90  136.08  4.11
444.7  3389.72  140.01  4.13
446.2  3441.68  144.26  4.19
447.7  3501.62  146.71  4.19
449.2  3564.00  146.02  4.10
450.7  3621.28  149.48  4.13
452.2  3682.41  150.39  4.08
453.7  3758.53  146.27  3.89
455.2  3840.40  147.19  3.83
456.7  3952.96  151.59  3.83
458.2  4072.55  153.78  3.78
459.7  4195.63  159.13  3.79
461.2  4317.19  163.32  3.78
462.7  4419.51  167.31  3.79
464.2  4528.34  170.80  3.77
465.7  4636.49  175.98  3.80
467.2  4730.69  178.90  3.78
468.7  4831.00  181.07  3.75
470.2  4904.47  185.98  3.79
471.7  4994.63  196.97  3.94
473.2  5152.65  201.12  3.90
474.6  5277.65  198.33  3.76
476.1  5315.90  193.91  3.65
477.6  5339.08  190.79  3.57
479.1  5368.13  190.24  3.54
480.6  5404.66  185.83  3.44
482.1  5475.21  189.18  3.46
483.6  5562.12  188.70  3.39
485.1  5668.27  190.79  3.37
486.6  5791.79  195.72  3.38
488.0  5923.94  196.52  3.32
489.5  6066.75  203.92  3.36
491.0  6201.68  207.26  3.34
492.5  6345.54  214.49  3.38
494.0  6492.59  221.05  3.40
495.4  6616.50  229.24  3.46
496.9  6746.80  239.81  3.55
498.4  6868.17  247.78  3.61
499.9  6989.37  255.56  3.66
501.4  7101.28  264.31  3.72
502.8  7211.42  274.38  3.80
504.3  7308.90  283.92  3.88
505.8  7405.94  292.89  3.95
507.2  7465.75  303.98  4.07
508.7  7504.76  310.83  4.14
510.2  7549.77  318.77  4.22
511.6  7573.93  327.24  4.32
513.1  7619.32  341.59  4.48
514.6  7684.06  343.51  4.47
516.0  7736.05  352.22  4.55
517.5  7828.25  362.61  4.63
519.0  7931.31  375.31  4.73
520.5  8033.54  387.48  4.82
521.9  8170.54  396.25  4.85
523.4  8322.71  408.96  4.91
524.8  8476.58  421.61  4.97
526.3  8648.70  434.34  5.02
527.8  8824.59  449.00  5.09
529.2  8983.24  459.46  5.11
530.7  9161.81  475.53  5.19
532.1  9325.79  490.33  5.26
533.6  9502.17  500.14  5.26
535.0  9689.01  515.59  5.32
536.5  9867.79  529.93  5.37
538.0  10049.16  546.11  5.43
539.4  10231.78  559.91  5.47
540.9  10443.93  578.75  5.54
542.3  10618.63  593.41  5.59
543.8  10743.19  608.48  5.66
545.2  10787.72  617.00  5.72
546.6  10787.25  620.91  5.76
548.1  10798.67  627.94  5.81
549.5  10797.77  641.64  5.94
551.0  10799.56  644.90  5.97
552.4  10821.09  656.10  6.06
553.9  10825.03  663.97  6.13
555.3  10846.78  675.79  6.23
556.8  10905.15  689.46  6.32
558.2  10950.19  703.80  6.43
559.6  11027.13  722.03  6.55
561.1  11132.88  745.12  6.69
562.5  11245.54  769.84  6.85
564.0  11402.49  795.88  6.98
565.4  11543.72  828.61  7.18
566.8  11723.98  864.76  7.38
568.3  11891.25  899.89  7.57
569.7  12076.06  938.95  7.78
571.1  12249.63  982.14  8.02
572.6  12426.21  1027.73  8.27
574.0  12599.40  1070.96  8.50
575.4  12769.31  1117.35  8.75
576.9  12924.45  1169.09  9.05
578.3  13072.88  1219.79  9.33
579.7  13214.09  1273.52  9.64
581.1  13332.32  1330.59  9.98
582.6  13457.72  1387.71  10.31
584.0  13568.00  1448.38  10.67
585.4  13711.91  1519.13  11.08
586.8  13919.40  1594.47  11.46
588.3  14140.62  1677.63  11.86
589.7  14327.82  1759.37  12.28
591.1  14447.26  1834.31  12.70
592.5  14518.46  1902.92  13.11
594.0  14547.66  1970.47  13.54
595.4  14566.76  2037.57  13.99
596.8  14575.28  2108.68  14.47
598.2  14586.43  2179.77  14.94
599.6  14584.19  2249.40  15.42
601.0  14621.32  2328.92  15.93
602.4  14656.48  2412.13  16.46
603.9  14720.65  2498.12  16.97
605.3  14787.56  2586.14  17.49
606.7  14850.90  2678.88  18.04
608.1  14956.71  2778.53  18.58
609.5  15087.13  2880.43  19.09
610.9  15240.09  2991.93  19.63
612.3  15378.24  3104.42  20.19
613.7  15565.24  3222.05  20.70
615.1  15698.61  3329.21  21.21
616.5  15834.13  3435.13  21.69
617.9  16040.22  3566.10  22.23
619.3  16231.37  3701.13  22.80
620.7  16465.73  3846.07  23.36
622.1  16702.31  3979.58  23.83
623.5  16967.59  4112.53  24.24
624.9  17268.83  4245.36  24.58
626.3  17464.11  4363.60  24.99
627.7  17297.90  4395.05  25.41
629.1  17131.07  4437.95  25.91
630.5  17065.89  4505.65  26.40
631.9  17068.07  4596.25  26.93
633.3  17072.86  4676.12  27.39
634.7  17143.21  4764.06  27.79
636.1  17175.19  4814.86  28.03
637.5  17214.12  4843.18  28.13
638.9  17282.65  4865.97  28.16
640.2  17345.48  4874.36  28.10
641.6  17368.65  4862.52  28.00
643.0  17347.86  4835.70  27.87
644.4  17346.99  4806.93  27.71
645.8  17303.92  4768.45  27.56
647.2  17371.51  4772.70  27.47
648.5  17405.34  4786.15  27.50
649.9  17326.73  4785.07  27.62
651.3  17269.88  4811.68  27.86
652.7  17194.65  4836.84  28.13
654.1  17110.53  4752.72  27.78
655.5  17000.34  4632.23  27.25
656.8  16892.62  4513.71  26.72
658.2  16993.27  4454.18  26.21
659.6  17201.86  4422.92  25.71
660.9  17374.35  4371.16  25.16
662.3  17542.46  4321.13  24.63
663.7  17706.15  4249.84  24.00
665.0  17850.15  4184.16  23.44
666.4  17993.38  4116.24  22.88
667.8  18172.37  4075.20  22.43
669.1  18340.58  4028.10  21.96
670.5  18513.22  4008.20  21.65
671.9  18629.28  3991.60  21.43
673.2  18784.35  4007.11  21.33
674.6  18934.77  4040.40  21.34
676.0  19107.41  4100.79  21.46
677.3  19274.00  4193.63  21.76
678.7  19460.75  4328.77  22.24
680.0  19693.92  4529.18  23.00
681.4  19949.74  4797.49  24.05
682.8  20190.63  5145.14  25.48
684.1  20434.05  5586.98  27.34
685.5  20661.50  6101.07  29.53
686.8  20876.79  6680.38  32.00
688.2  21063.54  7305.97  34.69
689.5  21136.22  7930.28  37.52
690.9  21189.20  8553.31  40.37
692.2  21241.50  9156.88  43.11
693.6  21283.52  9737.26  45.75
694.9  21276.87  10253.57  48.19
696.2  21306.77  10742.96  50.42
697.6  21332.37  11186.73  52.44
698.9  21357.60  11599.10  54.31
700.3  21390.71  11974.42  55.98
701.6  21429.47  12312.95  57.46
703.0  21471.99  12615.04  58.75
704.3  21485.34  12856.68  59.84
705.6  21483.00  13083.61  60.90
707.0  21491.89  13278.32  61.78
708.3  21438.50  13413.61  62.57
709.6  21384.38  13536.51  63.30
711.0  21305.08  13616.14  63.91
712.3  21214.65  13686.42  64.51
713.6  21181.23  13762.73  64.98
714.9  21115.22  13825.79  65.48
716.3  21103.70  13895.86  65.85
717.6  21104.62  13969.21  66.19
718.9  21048.57  13996.37  66.50
720.2  20942.08  13972.02  66.72
721.6  20841.80  13952.54  66.94
722.9  20742.62  13919.62  67.11
724.2  20595.93  13859.08  67.29
725.5  20483.80  13826.69  67.50
726.8  20382.67  13777.28  67.59
728.1  20319.64  13746.91  67.65
729.5  20266.07  13708.50  67.64
730.8  20224.65  13680.57  67.64
732.1  20162.40  13642.14  67.66
733.4  20118.51  13620.01  67.70
734.7  20079.83  13589.13  67.68
736.0  20072.78  13584.04  67.67
737.3  20029.99  13568.46  67.74
738.6  20078.49  13609.80  67.78
739.9  20158.75  13695.49  67.94
741.2  20237.49  13751.92  67.95
742.5  20374.08  13858.62  68.02
743.8  20609.53  14055.58  68.20
745.1  20972.39  14326.07  68.31
746.4  21401.61  14626.37  68.34
747.7  21849.92  14910.13  68.24
749.0  22279.29  15186.02  68.16
750.3  22537.39  15301.36  67.89
751.6  22489.95  15242.20  67.77
752.9  22268.69  15098.58  67.80
754.2  22020.08  14938.28  67.84
755.4  21752.37  14785.70  67.97
756.7  21671.76  14766.26  68.14
758.0  21695.15  14808.82  68.26
759.3  21840.20  14949.13  68.45
760.6  22048.18  15119.93  68.58
761.9  22241.80  15281.98  68.71
763.1  22361.42  15382.92  68.79
764.4  22495.96  15494.98  68.88
765.7  22607.00  15588.30  68.95
767.0  22707.99  15668.82  69.00
768.2  22787.52  15737.34  69.06
769.5  22847.70  15796.60  69.14
770.8  22968.83  15895.06  69.20
772.0  23007.05  15937.37  69.27
773.3  23073.57  15997.10  69.33
774.6  23142.26  16063.52  69.41
775.8  23217.35  16110.62  69.39
777.1  23250.39  16142.38  69.43
778.4  23228.21  16142.95  69.50
779.6  23232.20  16165.93  69.58
780.9  23206.00  16169.07  69.68
782.1  23123.66  16141.22  69.80
783.4  23129.60  16159.11  69.86
784.6  23156.94  16198.94  69.95
785.9  23323.57  16371.17  70.19
787.1  23657.54  16615.59  70.23
788.4  23905.77  16756.13  70.09
789.6  23910.81  16654.28  69.65
790.9  23703.38  16460.95  69.45
792.1  23443.52  16300.50  69.53
793.4  23200.49  16153.92  69.63
794.6  23038.97  16046.03  69.65
795.8  22887.63  15962.94  69.74
797.1  22746.90  15877.08  69.80
798.3  22633.05  15818.94  69.89
799.5  22585.37  15794.98  69.93
800.8  22510.70  15746.80  69.95
802.0  22435.02  15706.10  70.01
803.2  22355.92  15641.61  69.97
804.5  22286.88  15598.40  69.99
805.7  22221.30  15545.34  69.96
806.9  22163.45  15489.98  69.89
808.1  22106.40  15473.27  69.99
809.4  22068.13  15448.68  70.00
810.6  22012.90  15422.07  70.06
811.8  21998.30  15416.64  70.08
813.0  22023.85  15421.61  70.02
814.2  22034.44  15432.88  70.04
815.4  22094.68  15458.75  69.97
816.6  22117.02  15460.04  69.90
817.9  22159.15  15438.96  69.67
819.1  22110.24  15390.09  69.61
820.3  22040.68  15308.83  69.46
821.5  21976.08  15258.34  69.43
822.7  21945.91  15222.22  69.36
823.9  21946.82  15186.92  69.20
825.1  21950.55  15165.11  69.09
826.3  21976.62  15138.04  68.88
827.5  21980.34  15111.65  68.75
828.7  22017.96  15091.17  68.54
829.9  22041.74  15055.72  68.31
831.0  22083.57  15052.61  68.16
832.2  22125.60  15051.47  68.03
833.4  22169.16  15035.02  67.82
834.6  22207.03  15048.75  67.77
835.8  22252.39  15051.96  67.64
837.0  22278.53  15078.01  67.68
838.1  22362.84  15103.18  67.54
839.3  22423.92  15134.01  67.49
840.5  22463.55  15167.96  67.52
841.7  22539.94  15226.76  67.55
842.9  22590.38  15277.70  67.63
844.0  22640.76  15308.97  67.62
845.2  22733.43  15356.11  67.55
846.4  22779.40  15391.86  67.57
847.5  22894.92  15455.60  67.51
848.7  22986.81  15508.79  67.47
849.9  23090.42  15546.73  67.33
851.0  23115.33  15546.08  67.25
852.2  23147.70  15534.68  67.11
853.3  23146.04  15498.83  66.96
854.5  23138.69  15486.07  66.93
855.6  23131.08  15481.83  66.93
856.8  23140.08  15500.87  66.99
857.9  23125.66  15483.34  66.95
859.1  23200.40  15507.44  66.84
860.2  23210.88  15515.78  66.85
861.4  23238.19  15530.76  66.83
862.5  23256.69  15537.61  66.81
863.7  23299.75  15554.58  66.76
864.8  23308.25  15559.23  66.75
865.9  23278.88  15526.45  66.70
867.1  23298.62  15539.26  66.70
868.2  23308.26  15529.10  66.62
869.3  23327.36  15511.59  66.50
870.5  23292.12  15480.87  66.46
871.6  23289.32  15469.12  66.42
872.7  23336.56  15494.34  66.40
873.9  23363.45  15489.39  66.30
875.0  23323.98  15462.31  66.29
876.1  23338.58  15446.08  66.18
877.2  23352.60  15430.02  66.07
878.3  23349.40  15408.56  65.99
879.4  23378.40  15410.27  65.92
880.5  23403.42  15407.43  65.83
881.7  23389.60  15374.49  65.73
882.8  23432.80  15357.67  65.54
883.9  23448.21  15331.46  65.38
885.0  23450.02  15287.91  65.19
886.1  23424.56  15246.54  65.09
887.2  23365.96  15143.87  64.81
888.3  23308.56  15093.01  64.75
889.4  23276.53  14988.64  64.39
890.5  23201.38  14953.10  64.45
891.6  23192.34  14919.61  64.33
892.7  23215.89  14881.33  64.10
893.8  23203.09  14890.92  64.18
894.9  23213.03  14886.77  64.13
896.0  23219.08  14845.52  63.94
897.0  23233.59  14829.86  63.83
898.1  23265.19  14804.28  63.63
899.2  23265.94  14775.88  63.51
900.3  23202.69  14741.05  63.53
901.4  23182.22  14689.30  63.36
902.4  23192.03  14678.50  63.29
903.5  23179.29  14623.80  63.09
904.6  23181.33  14630.59  63.11
905.7  23181.52  14598.47  62.97
906.7  23201.08  14557.85  62.75
907.8  23205.26  14553.33  62.72
908.9  23171.38  14503.69  62.59
909.9  23142.01  14452.41  62.45
911.0  23135.89  14414.41  62.30
912.1  23112.25  14387.95  62.25
913.1  23069.80  14311.51  62.04
914.2  23011.95  14237.36  61.87
915.2  23006.97  14211.11  61.77
916.3  23024.55  14178.54  61.58
917.3  23013.50  14113.87  61.33
918.4  22970.06  14049.64  61.17
919.4  22959.52  13992.62  60.94
920.5  22948.10  13937.23  60.73
921.5  22992.94  13902.50  60.46
922.6  22908.19  13806.00  60.27
923.6  22998.44  13782.75  59.93
924.7  22983.50  13725.60  59.72
925.7  22963.47  13664.78  59.51
926.7  22993.12  13602.80  59.16
927.8  23046.06  13539.86  58.75
928.8  23129.73  13533.93  58.51
929.9  23214.82  13483.10  58.08
930.9  23325.95  13489.40  57.83
931.9  23422.51  13471.50  57.52
932.9  23590.71  13462.68  57.07
934.0  23628.34  13417.32  56.78
935.0  23647.48  13358.21  56.49
936.0  23654.47  13283.77  56.16
937.0  23611.58  13181.25  55.83
938.1  23603.32  13083.76  55.43
939.1  23584.34  13009.34  55.16
940.1  23673.00  12944.48  54.68
941.1  23749.98  12952.07  54.54
942.1  23913.97  12934.08  54.09
943.1  24007.97  12922.62  53.83
944.1  24139.96  12898.64  53.43
945.2  24191.16  12820.36  53.00
946.2  24274.20  12731.64  52.45
947.2  24295.69  12674.15  52.17
948.2  24407.51  12622.11  51.71
949.2  24434.31  12552.80  51.37
950.2  24503.20  12459.54  50.85
951.2  24568.74  12366.48  50.33
952.2  24624.11  12309.64  49.99
953.2  24717.31  12257.86  49.59
954.2  24858.68  12180.60  49.00
955.2  24833.48  12076.98  48.63
956.2  24781.87  11993.82  48.40
957.2  24889.44  11924.79  47.91
958.2  24934.17  11900.13  47.73
959.2  25016.63  11879.22  47.49
960.1  25036.42  11857.27  47.36
961.1  25110.32  11834.78  47.13
962.1  25088.91  11763.38  46.89
963.1  25119.92  11728.71  46.69
964.1  25214.63  11741.92  46.57
965.1  25330.49  11795.96  46.57
966.1  25308.67  11764.16  46.48
967.0  25429.11  11776.56  46.31
968.0  25412.72  11774.04  46.33
969.0  25476.70  11764.29  46.18
970.0  25548.92  11801.43  46.19
971.0  25553.38  11799.59  46.18
971.9  25577.75  11767.81  46.01
972.9  25632.47  11762.66  45.89
973.9  25687.84  11800.23  45.94
974.9  25707.07  11843.12  46.07
975.8  25785.50  11833.61  45.89
976.8  25887.84  11847.01  45.76
977.8  25820.50  11897.71  46.08
978.8  25860.98  11890.26  45.98
979.7  25944.03  11949.53  46.06
981.4  26534.70  11249.03  42.39
985.3  26407.57  11372.47  43.07
989.3  26474.11  11569.29  43.70
993.3  26619.54  11779.21  44.25
997.2  26659.40  11915.33  44.69
1001.2  26636.74  12041.42  45.21
1005.2  26603.49  12167.13  45.74
1009.1  26619.65  12324.61  46.30
1013.1  26716.01  12540.78  46.94
1017.1  26794.94  12754.81  47.60
1021.0  26801.46  12929.74  48.24
1025.0  26791.13  13104.12  48.91
1029.0  26701.37  13223.43  49.52
1032.9  26612.69  13335.66  50.11
1036.9  26609.51  13494.09  50.71
1040.9  26674.31  13692.37  51.33
1044.8  26787.82  13908.29  51.92
1048.8  26888.29  14092.53  52.41
1052.7  26960.57  14256.79  52.88
1056.7  26977.24  14369.84  53.27
1060.7  26985.60  14451.67  53.55
1064.6  27010.97  14517.70  53.75
1068.6  26982.88  14517.69  53.80
1072.5  26926.21  14498.27  53.84
1076.5  26904.28  14475.64  53.80
1080.4  26907.72  14430.10  53.63
1084.4  26967.74  14394.73  53.38
1088.3  27046.80  14340.26  53.02
1092.3  27030.17  14208.43  52.57
1096.2  27021.53  14091.92  52.15
1100.2  27064.25  13988.58  51.69
1104.1  26999.93  13817.25  51.18
1108.1  26976.31  13680.82  50.71
1112.0  26929.62  13510.20  50.17
1116.0  26827.19  13276.15  49.49
1119.9  26743.36  13036.02  48.74
1123.9  26789.11  12798.85  47.78
1127.8  26776.32  12440.32  46.46
1131.8  26765.25  11982.45  44.77
1135.7  26806.82  11441.63  42.68
1139.6  26802.37  10842.26  40.45
1143.6  26782.94  10271.57  38.35
1147.5  26783.56  9790.91  36.56
1151.4  26689.51  9371.51  35.11
1155.4  26684.50  9104.08  34.12
1159.3  26717.33  8940.92  33.46
1163.2  26640.39  8792.87  33.01
1167.2  26631.42  8715.48  32.73
1171.1  26649.11  8660.99  32.50
1175.0  26624.79  8597.77  32.29
1179.0  26612.16  8544.44  32.11
1182.9  26679.08  8512.33  31.91
1186.8  26688.13  8461.58  31.71
1190.7  26563.51  8378.77  31.54
1194.7  26418.25  8305.40  31.44
1198.6  26292.42  8254.79  31.40
1202.5  26222.77  8226.27  31.37
1206.4  26156.30  8213.38  31.40
1210.3  26101.80  8219.51  31.49
1214.2  26061.58  8242.62  31.63
1218.2  25980.18  8262.65  31.80
1222.1  25898.70  8287.94  32.00
1226.0  25846.71  8340.29  32.27
1229.9  25808.88  8379.30  32.47
1233.8  25765.00  8403.60  32.62
1237.7  25743.41  8444.33  32.80
1241.6  25703.07  8482.32  33.00
1245.5  25624.12  8491.02  33.14
1249.4  25550.35  8495.82  33.25
1253.3  25491.83  8504.20  33.36
1257.2  25468.72  8513.12  33.43
1261.1  25410.02  8514.72  33.51
1265.0  25340.06  8499.80  33.54
1268.9  25238.59  8453.99  33.50
1272.8  25273.80  8448.35  33.43
1276.7  25394.86  8458.31  33.31
1280.6  25450.19  8438.12  33.16
1284.5  25408.33  8363.75  32.92
1288.4  25396.88  8283.87  32.62
1292.3  25335.75  8175.75  32.27
1296.2  25253.77  8049.72  31.88
1300.1  25154.45  7901.89  31.41
1303.9  25021.28  7714.92  30.83
1307.8  24888.83  7516.73  30.20
1311.7  24744.05  7307.48  29.53
1315.6  24606.58  7088.54  28.81
1319.5  24454.91  6855.38  28.03
1323.3  24310.87  6615.73  27.21
1327.2  24198.13  6375.73  26.35
1331.1  24066.72  6134.70  25.49
1335.0  23889.51  5888.67  24.65
1338.8  23760.57  5669.27  23.86
1342.7  23672.67  5476.39  23.13
1346.5  23478.13  5268.83  22.44
1350.4  23310.26  5089.84  21.84
1354.3  23083.45  4908.09  21.26
1358.1  22838.31  4720.00  20.67
1362.0  22679.75  4553.27  20.08
1365.8  22617.02  4392.97  19.42
1369.7  22674.59  4238.63  18.69
1373.5  22638.01  4030.66  17.80
1377.4  22496.49  3753.68  16.69
1381.2  22378.35  3432.88  15.34
1385.1  22350.32  3101.85  13.88
1389.0  22288.46  2769.06  12.42
1392.8  22173.23  2446.01  11.03
1396.6  22085.45  2157.71  9.77
1400.5  21959.65  1903.63  8.67
1404.3  21857.78  1708.80  7.82
1408.2  21838.81  1556.89  7.13
1412.0  21801.98  1439.94  6.60
1415.8  21812.41  1355.02  6.21
1419.6  21792.97  1282.91  5.89
1423.5  21771.98  1227.74  5.64
1427.3  21755.09  1186.93  5.46
1431.1  21750.38  1161.73  5.34
1434.9  21698.88  1140.18  5.25
1438.8  21663.77  1122.78  5.18
1442.6  21637.50  1109.38  5.13
1446.4  21563.28  1094.11  5.07
1450.2  21516.17  1083.89  5.04
1454.0  21457.08  1086.04  5.06
1457.8  21441.21  1085.74  5.06
1461.6  21431.12  1087.65  5.08
1465.4  21362.81  1099.03  5.14
1469.2  21250.78  1113.99  5.24
1473.0  21169.27  1130.15  5.34
1476.8  21139.84  1156.47  5.47
1480.7  21105.82  1195.72  5.67
1484.4  21030.72  1238.80  5.89
1488.2  20973.72  1282.88  6.12
1492.0  20900.33  1334.84  6.39
1495.8  20827.63  1383.20  6.64
1499.6  20757.13  1421.34  6.85
1503.4  20685.81  1454.40  7.03
1507.2  20635.20  1479.79  7.17
