/*** Spectra Vista SIG Data ***/
name= RS1.sig
comm= SIG file reprocesed for matching/overlap;Averaged Ref/Tar of files: RD5S1,RD5S2,RD5S3
data=
346.4  366.28  150.23  41.02
347.9  400.03  149.66  37.41
349.5  432.12  157.04  36.34
351.1  468.00  157.46  33.65
352.6  496.51  164.45  33.12
354.2  520.33  173.11  33.27
355.7  575.84  186.34  32.36
357.3  598.14  192.91  32.25
358.8  616.87  186.86  30.29
360.4  668.33  202.96  30.37
361.9  686.05  204.89  29.87
363.5  715.01  210.52  29.44
365.1  743.78  207.47  27.89
366.6  778.54  218.43  28.06
368.2  824.27  215.22  26.11
369.7  873.39  220.61  25.26
371.3  928.49  228.50  24.61
372.8  977.74  231.07  23.63
374.4  1016.27  233.41  22.97
375.9  1052.58  240.64  22.86
377.4  1084.71  245.24  22.61
379.0  1129.79  244.73  21.66
380.5  1157.14  246.61  21.31
382.1  1186.43  248.32  20.93
383.6  1234.64  249.48  20.21
385.2  1293.88  247.68  19.14
386.7  1345.63  253.24  18.82
388.3  1410.38  264.32  18.74
389.8  1464.46  272.67  18.62
391.3  1527.57  277.39  18.16
392.9  1567.60  286.30  18.26
394.4  1609.87  292.69  18.18
395.9  1662.63  308.35  18.55
397.5  1749.05  325.58  18.61
399.0  1827.74  333.92  18.27
400.6  1876.29  333.85  17.79
402.1  1904.04  322.24  16.92
403.6  1943.17  319.75  16.46
405.1  1994.81  322.49  16.17
406.7  2061.92  329.88  16.00
408.2  2135.06  337.02  15.79
409.7  2198.56  343.24  15.61
411.3  2272.05  351.21  15.46
412.8  2335.64  362.29  15.51
414.3  2399.77  374.96  15.62
415.8  2475.00  385.67  15.58
417.4  2547.71  396.79  15.57
418.9  2612.23  406.99  15.58
420.4  2658.25  408.19  15.36
421.9  2705.56  415.19  15.35
423.5  2743.63  417.89  15.23
425.0  2788.02  417.29  14.97
426.5  2844.45  422.91  14.87
428.0  2917.63  426.65  14.62
429.5  3009.90  435.69  14.48
431.1  3112.45  444.66  14.29
432.6  3227.88  459.67  14.24
434.1  3329.29  468.35  14.07
435.6  3423.98  478.98  13.99
437.1  3517.80  490.43  13.94
438.6  3607.74  504.15  13.97
440.1  3694.39  515.52  13.95
441.6  3790.73  523.39  13.81
443.1  3873.83  531.02  13.71
444.7  3959.99  544.30  13.74
446.2  4024.76  547.16  13.59
447.7  4101.41  559.15  13.63
449.2  4174.20  570.17  13.66
450.7  4238.00  578.86  13.66
452.2  4313.18  585.11  13.57
453.7  4393.64  589.23  13.41
455.2  4491.99  596.60  13.28
456.7  4618.24  611.54  13.24
458.2  4761.06  627.06  13.17
459.7  4899.13  642.60  13.12
461.2  5044.37  659.87  13.08
462.7  5165.05  673.64  13.04
464.2  5287.79  692.11  13.09
465.7  5408.14  709.20  13.11
467.2  5518.98  721.04  13.06
468.7  5631.00  735.27  13.06
470.2  5705.20  744.55  13.05
471.7  5821.13  762.85  13.10
473.2  6011.22  801.49  13.33
474.6  6153.75  836.35  13.59
476.1  6204.18  828.43  13.35
477.6  6220.94  809.16  13.01
479.1  6250.52  805.58  12.89
480.6  6293.37  807.08  12.82
482.1  6374.96  809.22  12.69
483.6  6474.12  816.50  12.61
485.1  6599.29  829.30  12.57
486.6  6739.10  844.89  12.54
488.0  6898.13  864.50  12.53
489.5  7058.36  884.37  12.53
491.0  7224.81  906.23  12.54
492.5  7392.87  924.05  12.50
494.0  7557.79  951.19  12.59
495.4  7702.20  973.89  12.64
496.9  7844.83  995.88  12.69
498.4  7990.29  1021.93  12.79
499.9  8131.50  1050.25  12.92
501.4  8263.45  1075.21  13.01
502.8  8392.79  1102.44  13.14
504.3  8499.60  1130.46  13.30
505.8  8611.18  1160.52  13.48
507.2  8674.01  1182.77  13.64
508.7  8728.20  1204.17  13.80
510.2  8764.92  1230.34  14.04
511.6  8789.76  1252.45  14.25
513.1  8840.43  1283.69  14.52
514.6  8904.34  1315.39  14.77
516.0  8958.85  1344.66  15.01
517.5  9056.55  1377.43  15.21
519.0  9171.31  1413.69  15.41
520.5  9287.32  1452.66  15.64
521.9  9437.16  1500.16  15.90
523.4  9612.27  1550.61  16.13
524.8  9785.79  1601.43  16.36
526.3  9984.58  1655.02  16.58
527.8  10184.06  1708.21  16.77
529.2  10366.76  1762.63  17.00
530.7  10567.61  1816.32  17.19
532.1  10746.40  1872.14  17.42
533.6  10959.02  1930.27  17.61
535.0  11168.56  1985.39  17.78
536.5  11376.00  2041.58  17.95
538.0  11592.92  2096.50  18.08
539.4  11785.91  2149.77  18.24
540.9  12037.93  2220.02  18.44
542.3  12246.63  2284.08  18.65
543.8  12400.56  2334.52  18.83
545.2  12445.48  2361.64  18.98
546.6  12442.01  2375.58  19.09
548.1  12455.19  2391.99  19.20
549.5  12460.55  2411.97  19.36
551.0  12456.77  2434.82  19.55
552.4  12484.13  2455.45  19.67
553.9  12491.52  2476.47  19.83
555.3  12509.64  2500.35  19.99
556.8  12569.08  2536.21  20.18
558.2  12630.94  2576.87  20.40
559.6  12713.51  2618.00  20.59
561.1  12831.00  2672.26  20.83
562.5  12959.42  2727.14  21.04
564.0  13129.35  2800.17  21.33
565.4  13288.41  2871.75  21.61
566.8  13487.87  2954.17  21.90
568.3  13678.39  3038.44  22.21
569.7  13879.32  3130.45  22.55
571.1  14074.77  3222.10  22.89
572.6  14269.77  3321.00  23.27
574.0  14463.08  3419.52  23.64
575.4  14650.03  3522.38  24.04
576.9  14818.07  3625.32  24.47
578.3  14977.46  3729.92  24.90
579.7  15131.24  3840.10  25.38
581.1  15254.19  3945.52  25.87
582.6  15387.18  4058.62  26.38
584.0  15508.86  4183.47  26.97
585.4  15681.05  4316.73  27.53
586.8  15909.04  4482.65  28.18
588.3  16162.38  4657.07  28.81
589.7  16371.81  4828.51  29.49
591.1  16519.39  4977.74  30.13
592.5  16589.78  5109.48  30.80
594.0  16627.80  5234.47  31.48
595.4  16637.76  5354.52  32.18
596.8  16651.64  5479.69  32.91
598.2  16659.51  5618.16  33.72
599.6  16659.36  5747.08  34.50
601.0  16705.59  5901.44  35.33
602.4  16752.94  6056.07  36.15
603.9  16822.23  6228.75  37.03
605.3  16905.11  6412.90  37.93
606.7  16973.10  6592.68  38.84
608.1  17114.04  6798.88  39.73
609.5  17255.15  7019.82  40.68
610.9  17434.91  7255.95  41.62
612.3  17598.49  7490.14  42.56
613.7  17818.60  7754.41  43.52
615.1  17967.42  7994.48  44.49
616.5  18122.06  8234.03  45.44
617.9  18356.64  8521.88  46.42
619.3  18578.68  8809.10  47.42
620.7  18848.67  9118.83  48.38
622.1  19119.58  9457.08  49.46
623.5  19414.06  9846.00  50.72
624.9  19741.18  10269.18  52.02
626.3  19952.52  10649.25  53.37
627.7  19741.37  10781.96  54.62
629.1  19544.02  10897.49  55.76
630.5  19457.12  11057.48  56.83
631.9  19461.81  11238.48  57.75
633.3  19457.49  11409.37  58.64
634.7  19533.17  11617.92  59.48
636.1  19566.68  11775.33  60.18
637.5  19597.55  11897.97  60.71
638.9  19677.50  11971.37  60.84
640.2  19731.43  11965.16  60.64
641.6  19754.28  11868.48  60.08
643.0  19715.36  11753.85  59.62
644.4  19707.26  11694.47  59.34
645.8  19650.11  11679.36  59.44
647.2  19716.78  11787.91  59.79
648.5  19765.84  11899.20  60.20
649.9  19671.60  11968.24  60.84
651.3  19608.23  12082.33  61.62
652.7  19503.68  12190.96  62.51
654.1  19390.95  12159.37  62.71
655.5  19238.75  12051.94  62.64
656.8  19118.09  11944.03  62.48
658.2  19225.93  11980.33  62.31
659.6  19449.31  12084.39  62.13
660.9  19643.18  12149.27  61.85
662.3  19825.21  12187.75  61.48
663.7  20008.80  12207.30  61.01
665.0  20165.89  12214.76  60.57
666.4  20328.89  12229.96  60.16
667.8  20535.62  12283.62  59.82
669.1  20711.76  12334.83  59.55
670.5  20914.18  12432.02  59.44
671.9  21055.86  12515.81  59.44
673.2  21237.33  12668.43  59.65
674.6  21400.77  12845.12  60.02
676.0  21596.49  13087.15  60.60
677.3  21793.24  13388.45  61.43
678.7  21992.69  13767.59  62.60
680.0  22269.19  14274.42  64.10
681.4  22542.00  14890.14  66.06
682.8  22829.63  15629.33  68.46
684.1  23112.18  16475.47  71.28
685.5  23364.31  17391.30  74.44
686.8  23617.23  18360.62  77.74
688.2  23841.32  19310.63  81.00
689.5  23927.84  20140.21  84.17
690.9  23997.39  20915.88  87.16
692.2  24047.78  21616.86  89.89
693.6  24110.83  22257.41  92.31
694.9  24095.99  22772.78  94.51
696.2  24121.97  23254.81  96.41
697.6  24149.95  23688.41  98.09
698.9  24174.48  24077.15  99.60
700.3  24215.57  24425.78  100.87
701.6  24264.40  24747.60  101.99
703.0  24323.35  25034.80  102.92
704.3  24329.34  25256.89  103.81
705.6  24327.41  25424.15  104.51
707.0  24334.75  25593.32  105.17
708.3  24282.08  25673.47  105.73
709.6  24223.21  25732.08  106.23
711.0  24124.28  25748.46  106.73
712.3  24015.02  25741.36  107.19
713.6  23977.17  25781.45  107.52
714.9  23907.38  25786.69  107.86
716.3  23880.58  25843.77  108.22
717.6  23876.83  25910.48  108.52
718.9  23805.06  25892.97  108.77
720.2  23675.16  25806.13  109.00
721.6  23576.15  25732.24  109.15
722.9  23446.45  25633.05  109.33
724.2  23274.82  25480.89  109.48
725.5  23133.68  25374.81  109.69
726.8  23009.81  25255.42  109.76
728.1  22933.91  25178.90  109.79
729.5  22856.87  25106.39  109.84
730.8  22796.53  25055.97  109.91
732.1  22719.29  24978.25  109.94
733.4  22660.56  24926.26  110.00
734.7  22602.67  24867.34  110.02
736.0  22569.89  24862.85  110.16
737.3  22520.76  24823.73  110.23
738.6  22554.56  24895.49  110.38
739.9  22633.16  25017.90  110.54
741.2  22698.59  25119.55  110.67
742.5  22841.25  25307.03  110.80
743.8  23091.34  25626.95  110.98
745.1  23491.07  26100.75  111.11
746.4  23957.57  26649.53  111.24
747.7  24466.55  27221.74  111.26
749.0  24948.63  27761.79  111.28
750.3  25229.30  28046.57  111.17
751.6  25175.69  27980.16  111.14
752.9  24925.64  27703.69  111.15
754.2  24630.59  27410.46  111.29
755.4  24314.44  27110.36  111.50
756.7  24210.69  27035.12  111.67
758.0  24235.24  27096.85  111.81
759.3  24394.18  27315.87  111.98
760.6  24621.52  27602.14  112.11
761.9  24823.09  27868.06  112.27
763.1  24955.30  28046.39  112.39
764.4  25125.21  28250.53  112.44
765.7  25257.38  28414.97  112.50
767.0  25349.99  28555.29  112.64
768.2  25431.84  28685.78  112.79
769.5  25509.93  28787.65  112.85
770.8  25646.87  28962.44  112.93
772.0  25674.66  29026.10  113.05
773.3  25762.96  29136.33  113.09
774.6  25839.71  29258.56  113.23
775.8  25921.43  29369.65  113.30
777.1  25948.26  29428.05  113.41
778.4  25918.05  29423.68  113.53
779.6  25945.86  29462.29  113.55
780.9  25904.00  29446.40  113.68
782.1  25811.51  29376.98  113.81
783.4  25819.04  29418.41  113.94
784.6  25849.06  29474.65  114.03
785.9  26028.56  29751.17  114.30
787.1  26416.14  30209.28  114.36
788.4  26716.91  30540.81  114.31
789.6  26732.54  30506.19  114.12
790.9  26499.75  30230.56  114.08
792.1  26215.36  29933.59  114.18
793.4  25939.41  29671.33  114.39
794.6  25766.06  29477.38  114.40
795.8  25608.38  29326.57  114.52
797.1  25427.85  29150.68  114.64
798.3  25301.10  29037.28  114.77
799.5  25235.55  28978.37  114.83
800.8  25155.70  28920.13  114.96
802.0  25074.70  28847.54  115.05
803.2  24986.56  28751.57  115.07
804.5  24925.76  28695.26  115.12
805.7  24855.66  28615.97  115.13
806.9  24776.64  28534.80  115.17
808.1  24708.89  28475.43  115.24
809.4  24677.19  28438.48  115.24
810.6  24617.78  28370.92  115.25
811.8  24606.91  28347.83  115.20
813.0  24601.75  28350.41  115.24
814.2  24620.30  28372.53  115.24
815.4  24684.78  28432.63  115.18
816.6  24715.54  28441.74  115.08
817.9  24752.29  28453.71  114.95
819.1  24717.85  28376.70  114.80
820.3  24615.89  28270.16  114.85
821.5  24558.22  28175.08  114.73
822.7  24525.20  28111.63  114.62
823.9  24512.51  28072.59  114.52
825.1  24512.73  28034.05  114.37
826.3  24527.23  28001.33  114.16
827.5  24554.23  27983.50  113.97
828.7  24585.24  27960.70  113.73
829.9  24620.63  27940.11  113.48
831.0  24677.45  27948.63  113.26
832.2  24735.00  27949.95  113.00
833.4  24800.15  27955.17  112.72
834.6  24827.34  27969.53  112.66
835.8  24886.58  28006.97  112.54
837.0  24941.18  28033.06  112.40
838.1  25036.55  28113.48  112.29
839.3  25073.20  28145.03  112.25
840.5  25138.07  28186.95  112.13
841.7  25214.76  28272.53  112.13
842.9  25311.78  28357.64  112.03
844.0  25352.29  28417.28  112.09
845.2  25454.19  28529.47  112.08
846.4  25527.43  28592.63  112.01
847.5  25656.16  28718.70  111.94
848.7  25745.00  28820.03  111.94
849.9  25879.71  28919.68  111.75
851.0  25913.04  28945.01  111.70
852.2  25966.07  28984.50  111.62
853.3  25941.98  28962.55  111.64
854.5  25934.86  28955.75  111.65
855.6  25916.94  28926.31  111.61
856.8  25944.85  28937.21  111.53
857.9  25943.54  28917.19  111.46
859.1  25996.60  28976.53  111.46
860.2  26027.46  28974.03  111.32
861.4  26023.97  28987.41  111.39
862.5  26059.24  29003.65  111.30
863.7  26115.12  29044.99  111.22
864.8  26101.25  29039.89  111.26
865.9  26082.46  28986.59  111.13
867.1  26099.25  29010.35  111.15
868.2  26099.69  29000.27  111.11
869.3  26128.19  28992.76  110.96
870.5  26099.47  28951.89  110.93
871.6  26087.08  28938.07  110.93
872.7  26136.21  28955.26  110.79
873.9  26148.82  28965.34  110.77
875.0  26142.73  28909.14  110.58
876.1  26142.29  28907.74  110.58
877.2  26184.05  28892.00  110.34
878.3  26169.01  28848.96  110.24
879.4  26191.11  28852.03  110.16
880.5  26214.48  28862.70  110.10
881.7  26220.35  28831.40  109.96
882.8  26271.44  28828.66  109.73
883.9  26272.50  28818.89  109.69
885.0  26275.91  28757.55  109.44
886.1  26278.81  28686.58  109.16
887.2  26194.66  28538.14  108.95
888.3  26154.69  28439.08  108.73
889.4  26083.75  28325.33  108.59
890.5  26060.47  28245.98  108.39
891.6  26043.45  28176.06  108.19
892.7  26025.13  28131.09  108.09
893.8  26046.70  28099.60  107.88
894.9  26070.72  28090.88  107.75
896.0  26059.51  28042.16  107.61
897.0  26054.12  28024.95  107.56
898.1  26079.30  27996.24  107.35
899.2  26095.96  27949.95  107.10
900.3  26052.56  27871.40  106.98
901.4  26029.33  27799.50  106.80
902.4  26018.83  27767.30  106.72
903.5  26017.27  27701.06  106.47
904.6  26012.16  27658.15  106.33
905.7  26050.43  27650.87  106.14
906.7  26024.14  27583.08  105.99
907.8  26076.86  27575.13  105.75
908.9  26057.48  27484.01  105.47
909.9  26017.06  27414.08  105.37
911.0  26009.49  27329.25  105.07
912.1  25979.15  27247.54  104.88
913.1  25944.88  27152.88  104.66
914.2  25856.17  27020.67  104.50
915.2  25844.13  26958.35  104.31
916.3  25883.78  26908.54  103.96
917.3  25847.25  26851.77  103.89
918.4  25819.06  26728.37  103.52
919.4  25792.96  26621.64  103.21
920.5  25804.34  26523.65  102.79
921.5  25824.68  26462.65  102.47
922.6  25820.42  26348.46  102.05
923.6  25802.74  26277.04  101.84
924.7  25837.63  26203.13  101.41
925.7  25830.51  26085.36  100.99
926.7  25889.20  26005.85  100.45
927.8  25949.67  25898.69  99.80
928.8  26061.51  25867.18  99.25
929.9  26114.55  25822.88  98.88
930.9  26214.58  25787.18  98.37
931.9  26363.30  25787.44  97.82
932.9  26568.63  25822.60  97.19
934.0  26604.58  25737.10  96.74
935.0  26610.78  25616.33  96.26
936.0  26639.41  25446.61  95.52
937.0  26632.91  25300.67  95.00
938.1  26589.57  25162.54  94.63
939.1  26594.73  25034.86  94.13
940.1  26647.30  24950.53  93.63
941.1  26757.94  24939.63  93.20
942.1  26950.86  24942.09  92.55
943.1  27064.46  24885.18  91.95
944.1  27200.04  24851.84  91.37
945.2  27250.86  24739.74  90.79
946.2  27341.46  24642.27  90.13
947.2  27385.31  24509.69  89.50
948.2  27528.14  24445.13  88.80
949.2  27562.84  24302.64  88.17
950.2  27601.23  24159.91  87.53
951.2  27696.06  24023.72  86.74
952.2  27776.58  23942.29  86.20
953.2  27874.44  23817.74  85.45
954.2  27994.28  23709.46  84.69
955.2  28013.52  23550.20  84.07
956.2  27975.49  23433.45  83.76
957.2  28074.45  23335.51  83.12
958.2  28163.05  23240.91  82.52
959.2  28188.45  23178.47  82.23
960.1  28244.69  23140.39  81.93
961.1  28322.00  23116.00  81.62
962.1  28304.06  23049.97  81.44
963.1  28357.97  23050.01  81.28
964.1  28464.51  23069.20  81.05
965.1  28543.56  23098.29  80.92
966.1  28584.14  23076.50  80.73
967.0  28655.80  23113.45  80.66
968.0  28697.14  23113.62  80.54
969.0  28718.80  23136.97  80.56
970.0  28760.47  23177.60  80.59
971.0  28834.42  23194.37  80.44
971.9  28848.78  23244.34  80.57
972.9  28890.31  23264.70  80.53
973.9  28948.56  23323.17  80.57
974.9  29046.70  23427.68  80.66
975.8  29063.68  23475.17  80.77
976.8  29052.58  23518.04  80.95
977.8  29165.54  23632.96  81.03
978.8  29197.88  23740.80  81.31
979.7  29189.32  23826.95  81.63
981.4  29653.05  20852.79  70.32
985.3  29580.67  21167.14  71.56
989.3  29694.74  21589.01  72.70
993.3  29811.28  22004.73  73.81
997.2  29873.76  22283.29  74.59
1001.2  29847.48  22502.74  75.39
1005.2  29766.32  22718.72  76.32
1009.1  29802.16  23017.00  77.23
1013.1  29912.80  23393.04  78.20
1017.1  29980.27  23790.74  79.35
1021.0  29997.45  24115.71  80.39
1025.0  29986.05  24397.23  81.36
1029.0  29874.56  24602.15  82.35
1032.9  29757.39  24812.93  83.38
1036.9  29719.10  25079.14  84.39
1040.9  29786.91  25396.56  85.26
1044.8  29914.06  25762.38  86.12
1048.8  30017.23  26089.27  86.91
1052.7  30081.05  26356.09  87.62
1056.7  30106.96  26547.30  88.18
1060.7  30124.55  26684.20  88.58
1064.6  30126.20  26787.57  88.92
1068.6  30068.46  26793.25  89.11
1072.5  30024.99  26757.54  89.12
1076.5  29992.38  26723.92  89.10
1080.4  29983.51  26651.05  88.89
1084.4  30049.89  26594.02  88.50
1088.3  30134.74  26527.94  88.03
1092.3  30115.74  26362.60  87.54
1096.2  30104.84  26153.27  86.87
1100.2  30142.18  25951.40  86.10
1104.1  30082.71  25665.29  85.32
1108.1  30052.27  25408.01  84.55
1112.0  29977.43  25119.36  83.79
1116.0  29868.35  24744.25  82.84
1119.9  29779.89  24331.30  81.70
1123.9  29822.35  23950.36  80.31
1127.8  29798.40  23370.24  78.43
1131.8  29786.58  22604.73  75.89
1135.7  29821.64  21707.45  72.79
1139.6  29831.38  20717.81  69.45
1143.6  29819.95  19763.16  66.27
1147.5  29803.64  18943.58  63.56
1151.4  29713.98  18239.56  61.38
1155.4  29731.43  17797.01  59.86
1159.3  29760.66  17519.46  58.87
1163.2  29674.15  17271.37  58.20
1167.2  29672.28  17135.96  57.75
1171.1  29681.80  17049.68  57.44
1175.0  29651.52  16956.65  57.19
1179.0  29638.87  16885.26  56.97
1182.9  29697.98  16858.68  56.77
1186.8  29706.14  16796.54  56.54
1190.7  29571.10  16657.74  56.33
1194.7  29411.94  16518.07  56.16
1198.6  29289.65  16421.79  56.07
1202.5  29196.66  16371.96  56.07
1206.4  29112.98  16353.42  56.17
1210.3  29056.59  16357.13  56.29
1214.2  29008.58  16386.44  56.49
1218.2  28915.95  16420.13  56.79
1222.1  28833.10  16469.98  57.12
1226.0  28785.60  16541.85  57.47
1229.9  28734.48  16612.32  57.81
1233.8  28673.70  16667.36  58.13
1237.7  28644.25  16730.23  58.41
1241.6  28596.57  16780.68  58.68
1245.5  28494.07  16784.68  58.91
1249.4  28422.55  16794.97  59.09
1253.3  28356.92  16809.49  59.28
1257.2  28323.43  16826.11  59.41
1261.1  28264.79  16808.80  59.47
1265.0  28184.91  16768.80  59.50
1268.9  28067.43  16694.71  59.48
1272.8  28106.70  16684.85  59.36
1276.7  28238.01  16701.28  59.14
1280.6  28297.17  16661.15  58.88
1284.5  28250.81  16539.50  58.55
1288.4  28234.52  16421.22  58.16
1292.3  28165.50  16228.67  57.62
1296.2  28076.33  15995.41  56.97
1300.1  27971.71  15738.60  56.27
1303.9  27830.79  15421.91  55.41
1307.8  27679.51  15073.53  54.46
1311.7  27513.83  14699.61  53.43
1315.6  27356.90  14311.46  52.31
1319.5  27190.78  13896.55  51.11
1323.3  27036.43  13474.13  49.84
1327.2  26898.46  13059.54  48.55
1331.1  26745.75  12643.28  47.27
1335.0  26551.82  12215.32  46.01
1338.8  26417.20  11827.33  44.77
1342.7  26306.22  11474.77  43.62
1346.5  26068.84  11078.52  42.50
1350.4  25867.11  10718.52  41.44
1354.3  25587.95  10359.95  40.49
1358.1  25293.52  10001.12  39.54
1362.0  25095.25  9694.29  38.63
1365.8  25024.00  9436.41  37.71
1369.7  25106.98  9193.22  36.62
1373.5  25078.13  8833.42  35.22
1377.4  24917.97  8357.13  33.54
1381.2  24782.40  7814.46  31.53
1385.1  24754.66  7263.71  29.34
1389.0  24692.16  6692.82  27.11
1392.8  24567.88  6132.29  24.96
1396.6  24460.52  5640.49  23.06
1400.5  24320.99  5207.68  21.41
1404.3  24225.89  4859.74  20.06
1408.2  24204.64  4599.96  19.00
1412.0  24174.50  4397.12  18.19
1415.8  24201.79  4248.86  17.56
1419.6  24176.54  4128.05  17.07
1423.5  24162.30  4038.04  16.71
1427.3  24156.22  3966.03  16.42
1431.1  24149.78  3915.30  16.21
1434.9  24082.82  3878.14  16.10
1438.8  24045.91  3850.62  16.01
1442.6  24021.66  3831.28  15.95
1446.4  23948.95  3807.86  15.90
