/*** Spectra Vista SIG Data ***/
name= S1.sig
comm= Averaged Ref/Tar of files: RD3S1,RD3S2,RD3S3
data=
346.4  598.78  225.08  37.59
347.9  627.50  223.81  35.67
349.5  677.04  235.04  34.72
351.1  739.44  234.00  31.65
352.6  790.63  253.00  32.00
354.2  841.03  257.44  30.61
355.7  912.59  278.38  30.50
357.3  974.37  278.56  28.59
358.8  992.58  290.09  29.23
360.4  1062.29  301.33  28.37
361.9  1117.88  308.78  27.62
363.5  1149.55  313.93  27.31
365.1  1196.29  313.23  26.18
366.6  1260.16  324.54  25.75
368.2  1349.72  325.68  24.13
369.7  1403.95  335.21  23.88
371.3  1488.21  342.42  23.01
372.8  1577.00  350.81  22.25
374.4  1638.71  360.45  22.00
375.9  1688.10  365.20  21.63
377.4  1740.09  372.96  21.43
379.0  1788.57  384.02  21.47
380.5  1855.73  377.51  20.34
382.1  1905.98  382.18  20.05
383.6  1973.16  378.00  19.16
385.2  2065.25  392.33  19.00
386.7  2149.76  403.42  18.77
388.3  2271.83  413.06  18.18
389.8  2363.45  426.39  18.04
391.3  2453.59  435.39  17.75
392.9  2526.36  454.25  17.98
394.4  2602.50  468.87  18.02
395.9  2690.98  487.75  18.13
397.5  2829.48  509.26  18.00
399.0  2963.31  522.21  17.62
400.6  3033.76  523.55  17.26
402.1  3072.78  512.56  16.68
403.6  3116.75  501.08  16.08
405.1  3199.00  500.42  15.64
406.7  3304.00  513.71  15.55
408.2  3412.53  521.24  15.27
409.7  3521.28  538.35  15.29
411.3  3642.17  556.92  15.29
412.8  3732.75  568.01  15.22
414.3  3845.02  585.77  15.23
415.8  3965.00  605.00  15.26
417.4  4085.95  617.32  15.11
418.9  4192.21  629.13  15.01
420.4  4267.16  634.76  14.88
421.9  4346.32  644.53  14.83
423.5  4413.15  644.46  14.60
425.0  4492.75  648.03  14.42
426.5  4594.55  661.48  14.40
428.0  4712.54  669.80  14.21
429.5  4856.53  678.74  13.98
431.1  5025.20  690.15  13.73
432.6  5198.44  703.63  13.54
434.1  5370.75  721.88  13.44
435.6  5520.56  739.17  13.39
437.1  5670.60  755.30  13.32
438.6  5806.58  771.59  13.29
440.1  5943.54  783.09  13.18
441.6  6091.61  797.66  13.09
443.1  6230.93  817.43  13.12
444.7  6356.12  830.22  13.06
446.2  6474.98  839.90  12.97
447.7  6582.53  855.81  13.00
449.2  6691.68  876.96  13.11
450.7  6814.08  888.16  13.03
452.2  6930.56  893.42  12.89
453.7  7066.33  897.11  12.70
455.2  7233.85  913.66  12.63
456.7  7443.04  933.39  12.54
458.2  7673.27  956.47  12.46
459.7  7920.50  982.92  12.41
461.2  8156.07  1008.41  12.36
462.7  8366.46  1031.04  12.32
464.2  8568.06  1055.30  12.32
465.7  8788.58  1078.94  12.28
467.2  8970.50  1104.31  12.31
468.7  9176.00  1122.67  12.23
470.2  9305.26  1131.50  12.16
471.7  9490.50  1159.00  12.21
473.2  9788.42  1220.14  12.47
474.6  10042.30  1259.48  12.54
476.1  10127.24  1251.51  12.36
477.6  10169.21  1220.18  12.00
479.1  10224.56  1213.26  11.87
480.6  10293.47  1212.10  11.78
482.1  10426.95  1220.24  11.70
483.6  10590.11  1232.02  11.63
485.1  10796.39  1249.74  11.58
486.6  11041.55  1267.48  11.48
488.0  11290.50  1288.09  11.41
489.5  11568.25  1314.61  11.36
491.0  11840.59  1342.67  11.34
492.5  12119.22  1367.28  11.28
494.0  12409.65  1396.29  11.25
495.4  12660.45  1421.20  11.23
496.9  12912.44  1446.78  11.20
498.4  13155.80  1474.17  11.21
499.9  13408.52  1502.81  11.21
501.4  13645.90  1528.04  11.20
502.8  13864.50  1552.71  11.20
504.3  14081.40  1572.00  11.16
505.8  14291.05  1597.24  11.18
507.2  14436.37  1614.71  11.19
508.7  14548.87  1626.91  11.18
510.2  14651.50  1636.52  11.17
511.6  14718.08  1646.24  11.19
513.1  14838.45  1664.92  11.22
514.6  14986.45  1683.92  11.24
516.0  15112.04  1693.97  11.21
517.5  15305.31  1712.70  11.19
519.0  15537.89  1731.30  11.14
520.5  15768.60  1749.33  11.09
521.9  16045.99  1778.05  11.08
523.4  16363.11  1808.20  11.05
524.8  16675.79  1838.60  11.03
526.3  17027.53  1870.61  10.99
527.8  17380.80  1910.61  10.99
529.2  17706.86  1945.21  10.99
530.7  18056.71  1980.29  10.97
532.1  18377.28  2020.49  10.99
533.6  18738.23  2053.21  10.96
535.0  19114.67  2096.90  10.97
536.5  19476.07  2129.45  10.93
538.0  19846.24  2168.75  10.93
539.4  20198.95  2205.13  10.92
540.9  20626.19  2267.16  10.99
542.3  20984.92  2324.65  11.08
543.8  21250.33  2368.55  11.15
545.2  21329.19  2379.76  11.16
546.6  21331.64  2380.47  11.16
548.1  21362.06  2382.00  11.15
549.5  21376.46  2392.43  11.19
551.0  21386.66  2399.29  11.22
552.4  21443.54  2418.46  11.28
553.9  21463.89  2436.79  11.35
555.3  21521.57  2462.27  11.44
556.8  21650.10  2491.31  11.51
558.2  21773.81  2529.56  11.62
559.6  21936.94  2572.94  11.73
561.1  22168.25  2623.29  11.83
562.5  22423.78  2685.79  11.98
564.0  22757.43  2757.90  12.12
565.4  23059.14  2835.22  12.30
566.8  23449.52  2929.62  12.49
568.3  23818.66  3026.02  12.70
569.7  24198.01  3132.30  12.94
571.1  24579.14  3242.93  13.19
572.6  24952.86  3360.42  13.47
574.0  25317.60  3490.30  13.79
575.4  25678.69  3623.06  14.11
576.9  26008.29  3762.99  14.47
578.3  26306.64  3905.69  14.85
579.7  26593.28  4056.89  15.26
581.1  26823.10  4203.19  15.67
582.6  27065.10  4365.23  16.13
584.0  27286.52  4542.45  16.65
585.4  27587.92  4745.45  17.20
586.8  27978.96  4984.04  17.81
588.3  28419.30  5247.84  18.47
589.7  28786.68  5498.22  19.10
591.1  29016.81  5728.76  19.74
592.5  29127.43  5935.29  20.38
594.0  29186.34  6139.04  21.03
595.4  29194.56  6341.62  21.72
596.8  29193.45  6545.11  22.42
598.2  29177.08  6758.33  23.16
599.6  29153.88  6977.97  23.93
601.0  29216.28  7220.60  24.71
602.4  29261.60  7468.14  25.52
603.9  29364.60  7730.08  26.32
605.3  29484.10  7995.92  27.12
606.7  29584.80  8257.80  27.91
608.1  29785.49  8555.71  28.72
609.5  30013.28  8865.05  29.54
610.9  30296.78  9195.98  30.35
612.3  30557.28  9525.08  31.17
613.7  30914.00  9887.56  31.98
615.1  31159.08  10228.14  32.83
616.5  31406.64  10567.86  33.65
617.9  31801.61  10969.12  34.49
619.3  32170.62  11375.17  35.36
620.7  32635.92  11824.49  36.23
622.1  33083.75  12308.04  37.20
623.5  33564.04  12857.91  38.31
624.9  34116.86  13449.27  39.42
626.3  34490.69  13973.73  40.51
627.7  34145.81  14176.17  41.52
629.1  33851.16  14355.36  42.41
630.5  33743.57  14592.67  43.25
631.9  33775.53  14864.66  44.01
633.3  33808.52  15121.32  44.73
634.7  33992.91  15423.14  45.37
636.1  34075.08  15621.29  45.84
637.5  34196.58  15779.61  46.14
638.9  34374.61  15924.05  46.33
640.2  34545.58  16034.82  46.42
641.6  34634.34  16068.00  46.39
643.0  34657.83  16010.61  46.20
644.4  34696.37  15932.34  45.92
645.8  34653.86  15817.31  45.64
647.2  34834.41  15849.17  45.50
648.5  34958.93  15918.36  45.53
649.9  34861.32  15922.34  45.67
651.3  34789.65  15991.05  45.96
652.7  34680.00  16029.30  46.22
654.1  34452.30  15853.88  46.02
655.5  34172.42  15581.39  45.60
656.8  33904.63  15286.22  45.09
658.2  34070.04  15163.48  44.51
659.6  34442.82  15109.74  43.87
660.9  34748.70  14993.85  43.15
662.3  35067.95  14839.81  42.32
663.7  35364.00  14652.40  41.43
665.0  35617.00  14457.41  40.59
666.4  35877.31  14264.33  39.76
667.8  36209.10  14124.70  39.01
669.1  36482.80  13983.71  38.33
670.5  36799.72  13903.30  37.78
671.9  36995.40  13821.00  37.36
673.2  37270.13  13822.16  37.09
674.6  37530.47  13865.77  36.95
676.0  37841.78  13975.56  36.93
677.3  38141.57  14165.69  37.14
678.7  38483.75  14458.50  37.57
680.0  38922.37  14913.24  38.32
681.4  39389.45  15548.37  39.47
682.8  39844.35  16379.24  41.11
684.1  40287.78  17419.74  43.24
685.5  40705.56  18665.83  45.86
686.8  41091.84  20092.46  48.90
688.2  41433.89  21640.79  52.23
689.5  41549.57  23177.18  55.78
690.9  41633.44  24720.73  59.38
692.2  41697.60  26234.40  62.92
693.6  41771.65  27712.22  66.34
694.9  41721.88  29039.28  69.60
696.2  41751.90  30326.37  72.63
697.6  41766.04  31507.62  75.44
698.9  41796.48  32609.28  78.02
700.3  41844.24  33619.75  80.34
701.6  41918.48  34541.56  82.40
703.0  41979.40  35387.70  84.30
704.3  41981.71  36086.54  85.96
705.6  41967.18  36705.24  87.46
707.0  41980.75  37268.01  88.77
708.3  41872.71  37692.46  90.02
709.6  41753.67  38055.55  91.14
711.0  41589.99  38326.22  92.15
712.3  41418.66  38556.65  93.09
713.6  41354.04  38836.42  93.91
714.9  41240.96  39055.63  94.70
716.3  41218.54  39321.48  95.40
717.6  41221.95  39586.52  96.03
718.9  41134.56  39727.40  96.58
720.2  40936.00  39745.04  97.09
721.6  40765.66  39779.96  97.58
722.9  40572.15  39757.56  97.99
724.2  40305.71  39664.41  98.41
725.5  40134.57  39623.26  98.73
726.8  39960.91  39552.09  98.98
728.1  39855.98  39551.99  99.24
729.5  39766.23  39519.23  99.38
730.8  39707.44  39514.90  99.52
732.1  39612.07  39475.67  99.66
733.4  39556.45  39461.40  99.76
734.7  39507.57  39439.86  99.83
736.0  39511.29  39484.64  99.93
737.3  39463.58  39483.10  100.05
738.6  39569.04  39636.74  100.17
739.9  39770.92  39885.80  100.29
741.2  39928.98  40086.41  100.39
742.5  40206.42  40427.95  100.55
743.8  40696.43  40970.74  100.67
745.1  41398.16  41757.54  100.87
746.4  42245.84  42651.40  100.96
747.7  43136.62  43576.91  101.02
749.0  43980.49  44459.92  101.09
750.3  44484.44  44967.56  101.09
751.6  44396.66  44903.07  101.14
752.9  43969.12  44487.77  101.18
754.2  43470.53  44034.73  101.30
755.4  42928.75  43551.96  101.45
756.7  42746.48  43428.66  101.60
758.0  42774.71  43512.21  101.72
759.3  43048.01  43862.68  101.89
760.6  43418.76  44312.99  102.06
761.9  43775.94  44729.89  102.18
763.1  43996.61  44977.54  102.23
764.4  44239.34  45283.35  102.36
765.7  44424.25  45509.75  102.44
767.0  44583.75  45691.19  102.48
768.2  44688.00  45866.24  102.64
769.5  44782.92  46005.25  102.73
770.8  44990.42  46245.28  102.79
772.0  45014.41  46328.43  102.92
773.3  45100.97  46456.19  103.00
774.6  45226.84  46616.27  103.07
775.8  45313.45  46741.18  103.15
777.1  45344.81  46802.44  103.21
778.4  45245.88  46759.36  103.35
779.6  45226.44  46781.41  103.44
780.9  45132.00  46732.00  103.55
782.1  44952.26  46597.55  103.66
783.4  44936.32  46629.44  103.77
784.6  44935.72  46679.11  103.88
785.9  45255.62  47050.03  103.97
787.1  45836.93  47724.63  104.12
788.4  46288.94  48233.65  104.20
789.6  46219.23  48137.10  104.15
790.9  45788.99  47649.93  104.06
792.1  45296.16  47150.56  104.09
793.4  44771.54  46686.94  104.28
794.6  44415.30  46354.25  104.37
795.8  44134.47  46074.99  104.40
797.1  43801.05  45780.50  104.52
798.3  43569.08  45579.19  104.61
799.5  43411.48  45472.23  104.75
800.8  43273.13  45342.15  104.78
802.0  43071.08  45192.47  104.93
803.2  42890.28  45010.16  104.94
804.5  42742.15  44891.84  105.03
805.7  42601.95  44739.58  105.02
806.9  42426.40  44580.30  105.08
808.1  42305.67  44483.09  105.15
809.4  42221.44  44390.36  105.14
810.6  42105.70  44294.25  105.20
811.8  42062.43  44254.18  105.21
813.0  42071.08  44261.18  105.21
814.2  42081.20  44290.78  105.25
815.4  42185.03  44371.29  105.18
816.6  42225.34  44385.64  105.12
817.9  42273.21  44403.71  105.04
819.1  42166.58  44288.31  105.03
820.3  42039.03  44090.75  104.88
821.5  41905.07  43942.86  104.86
822.7  41849.58  43838.03  104.75
823.9  41838.35  43788.37  104.66
825.1  41851.34  43720.41  104.47
826.3  41890.94  43671.59  104.25
827.5  41937.05  43640.85  104.06
828.7  42011.28  43604.24  103.79
829.9  42039.57  43537.82  103.56
831.0  42140.75  43549.88  103.34
832.2  42235.78  43554.74  103.12
833.4  42305.18  43573.76  103.00
834.6  42417.19  43604.69  102.80
835.8  42496.65  43636.95  102.68
837.0  42597.61  43702.09  102.59
838.1  42745.68  43826.41  102.53
839.3  42856.00  43898.18  102.43
840.5  42989.60  44015.04  102.39
841.7  43156.80  44154.14  102.31
842.9  43298.86  44303.22  102.32
844.0  43430.88  44429.23  102.30
845.2  43568.90  44571.33  102.30
846.4  43732.15  44704.57  102.22
847.5  43960.00  44936.28  102.22
848.7  44164.79  45114.14  102.15
849.9  44393.85  45294.98  102.03
851.0  44478.08  45343.69  101.95
852.2  44569.63  45402.08  101.87
853.3  44562.81  45384.86  101.84
854.5  44594.90  45381.26  101.76
855.6  44615.97  45365.70  101.68
856.8  44687.86  45411.08  101.62
857.9  44681.40  45417.30  101.65
859.1  44832.20  45524.53  101.54
860.2  44876.88  45542.56  101.48
861.4  44954.55  45587.06  101.41
862.5  45021.69  45635.15  101.36
863.7  45150.84  45732.05  101.29
864.8  45213.35  45754.22  101.20
865.9  45167.77  45689.57  101.16
867.1  45241.43  45732.17  101.08
868.2  45295.54  45740.50  100.98
869.3  45314.27  45730.51  100.92
870.5  45282.48  45642.49  100.80
871.6  45315.83  45632.74  100.70
872.7  45413.27  45698.15  100.63
873.9  45478.16  45685.03  100.45
875.0  45456.71  45623.64  100.37
876.1  45452.45  45580.83  100.28
877.2  45498.99  45559.04  100.13
878.3  45519.98  45498.74  99.95
879.4  45563.53  45487.76  99.83
880.5  45631.08  45462.72  99.63
881.7  45596.20  45393.40  99.56
882.8  45693.96  45412.54  99.38
883.9  45722.91  45363.85  99.21
885.0  45675.63  45243.83  99.05
886.1  45712.78  45143.12  98.75
887.2  45537.58  44929.93  98.67
888.3  45475.07  44752.67  98.41
889.4  45347.40  44576.62  98.30
890.5  45259.13  44418.67  98.14
891.6  45193.70  44276.42  97.97
892.7  45201.31  44203.07  97.79
893.8  45270.56  44177.33  97.59
894.9  45248.28  44113.12  97.49
896.0  45235.90  44012.23  97.29
897.0  45257.72  43955.93  97.12
898.1  45230.13  43886.54  97.03
899.2  45252.30  43860.64  96.92
900.3  45165.90  43669.76  96.69
901.4  45101.16  43536.20  96.53
902.4  45077.20  43486.24  96.47
903.5  45018.01  43347.86  96.29
904.6  45035.56  43275.64  96.09
905.7  45038.93  43177.50  95.87
906.7  44985.82  43103.78  95.82
907.8  45025.57  43053.06  95.62
908.9  44904.57  42870.37  95.47
909.9  44897.74  42785.78  95.30
911.0  44830.08  42620.13  95.07
912.1  44749.25  42464.25  94.89
913.1  44707.00  42316.04  94.65
914.2  44554.62  42099.22  94.49
915.2  44505.45  41977.98  94.32
916.3  44491.35  41851.55  94.07
917.3  44461.10  41716.59  93.83
918.4  44383.35  41493.65  93.49
919.4  44330.69  41331.58  93.23
920.5  44315.70  41171.94  92.91
921.5  44285.78  41062.91  92.72
922.6  44268.10  40834.50  92.24
923.6  44262.16  40735.95  92.03
924.7  44333.00  40584.83  91.55
925.7  44276.22  40391.96  91.23
926.7  44252.98  40223.33  90.89
927.8  44374.33  40078.02  90.32
928.8  44502.63  40000.52  89.88
929.9  44598.23  39884.04  89.43
930.9  44802.27  39866.10  88.98
931.9  45011.35  39840.94  88.51
932.9  45355.12  39887.85  87.95
934.0  45370.16  39722.33  87.55
935.0  45397.97  39538.14  87.09
936.0  45413.73  39281.97  86.50
937.0  45319.95  39027.50  86.12
938.1  45295.44  38761.53  85.57
939.1  45257.91  38548.14  85.17
940.1  45342.90  38398.82  84.69
941.1  45568.46  38338.69  84.13
942.1  45803.34  38342.33  83.71
943.1  45999.43  38237.74  83.13
944.1  46171.28  38229.63  82.80
945.2  46338.18  37992.36  81.99
946.2  46411.22  37836.09  81.52
947.2  46518.25  37650.63  80.94
948.2  46693.82  37520.03  80.35
949.2  46838.19  37321.38  79.68
950.2  46912.95  37096.68  79.08
951.2  46909.80  36894.76  78.65
952.2  47054.57  36652.88  77.89
953.2  47260.85  36510.34  77.25
954.2  47365.65  36360.90  76.77
955.2  47408.68  36117.24  76.18
956.2  47434.65  35855.17  75.59
957.2  47543.77  35740.32  75.17
958.2  47601.59  35572.09  74.73
959.2  47735.55  35520.00  74.41
960.1  47775.14  35390.25  74.08
961.1  47870.63  35354.63  73.85
962.1  47933.44  35256.87  73.55
963.1  48032.50  35274.91  73.44
964.1  48057.21  35244.44  73.34
965.1  48243.99  35334.16  73.24
966.1  48335.33  35240.00  72.91
967.0  48410.39  35294.61  72.91
968.0  48434.88  35241.74  72.76
969.0  48556.60  35302.87  72.70
970.0  48603.65  35360.15  72.75
971.0  48737.12  35415.49  72.67
971.9  48722.90  35465.61  72.79
972.9  48879.95  35446.98  72.52
973.9  48859.53  35576.99  72.81
974.9  49044.08  35685.56  72.76
975.8  49101.73  35648.42  72.60
976.8  49135.91  35727.03  72.71
977.8  49315.41  35903.40  72.80
978.8  49372.50  35979.50  72.87
979.7  49504.50  36156.62  73.04
980.7  49626.72  36305.45  73.16
981.7  49868.69  36637.04  73.47
982.6  50026.42  36903.69  73.77
983.6  50542.44  37303.86  73.81
984.6  51139.74  37917.07  74.14
985.5  51570.00  38391.00  74.44
986.5  52881.11  39127.28  73.99
987.5  53801.49  40053.24  74.45
988.4  54737.10  41008.37  74.92
989.4  56052.04  41987.01  74.91
990.4  57074.27  43061.15  75.45
991.3  59136.61  44480.27  75.22
992.3  61232.97  45386.74  74.12
993.2  62381.81  46973.36  75.30
994.2  63759.15  48241.05  75.66
995.2  64627.45  49146.70  76.05
996.1  65405.36  49919.98  76.32
997.1  65143.00  49617.25  76.17
998.0  67149.60  49334.40  73.47
999.0  66846.51  49743.44  74.41
1000.0  67127.69  50127.01  74.67
1000.9  65712.83  50629.05  77.05
1001.9  66491.34  49733.36  74.80
1002.8  64393.95  49480.19  76.84
1003.8  65025.46  49605.56  76.29
1004.8  66172.20  50047.48  75.63
961.5  59748.86  35771.97  59.87
965.5  58598.35  35511.57  60.60
969.5  56260.49  34929.19  62.08
973.4  53913.29  34139.07  63.32
977.4  51859.95  33519.95  64.64
981.4  50850.20  33479.25  65.84
985.3  50481.20  33684.73  66.73
989.3  50535.22  34031.58  67.34
993.3  50635.09  34363.51  67.87
997.2  50595.02  34572.04  68.33
1001.2  50545.04  34826.65  68.90
1005.2  50473.33  35156.57  69.65
1009.1  50535.74  35637.81  70.52
1013.1  50697.93  36220.25  71.44
1017.1  50843.90  36790.29  72.36
1021.0  50855.49  37256.65  73.26
1025.0  50816.26  37701.15  74.19
1029.0  50641.08  38036.77  75.11
1032.9  50496.42  38381.33  76.01
1036.9  50486.34  38828.00  76.91
1040.9  50614.23  39347.89  77.74
1044.8  50848.91  39935.35  78.54
1048.8  51055.33  40460.14  79.25
1052.7  51200.97  40881.36  79.84
1056.7  51265.76  41184.27  80.33
1060.7  51328.86  41410.72  80.68
1064.6  51364.29  41576.43  80.94
1068.6  51285.22  41590.07  81.10
1072.5  51205.93  41546.88  81.14
1076.5  51155.97  41466.44  81.06
1080.4  51154.95  41352.23  80.84
1084.4  51258.31  41260.16  80.49
1088.3  51367.47  41112.21  80.04
1092.3  51376.13  40809.35  79.43
1096.2  51342.58  40461.56  78.81
1100.2  51360.86  40146.83  78.17
1104.1  51244.60  39698.15  77.47
1108.1  51175.76  39281.50  76.76
1112.0  51059.75  38812.46  76.01
1116.0  50831.30  38218.64  75.19
1119.9  50653.13  37561.17  74.15
1123.9  50703.41  36933.40  72.84
1127.8  50649.60  35984.64  71.05
1131.8  50608.23  34775.14  68.71
1135.7  50617.81  33381.96  65.95
1139.6  50606.06  31843.14  62.92
1143.6  50555.26  30362.54  60.06
1147.5  50517.05  29101.70  57.61
1151.4  50365.69  28032.89  55.66
1155.4  50355.11  27341.61  54.30
1159.3  50376.78  26899.13  53.40
1163.2  50207.59  26501.74  52.78
1167.2  50161.80  26272.70  52.38
1171.1  50174.37  26112.69  52.04
1175.0  50101.08  25940.58  51.78
1179.0  50065.70  25795.32  51.52
1182.9  50165.17  25718.05  51.27
1186.8  50159.61  25607.78  51.05
1190.7  49934.95  25389.26  50.84
1194.7  49665.47  25173.48  50.69
1198.6  49438.62  25028.85  50.63
1202.5  49264.40  24949.39  50.64
1206.4  49122.14  24919.77  50.73
1210.3  49037.26  24932.62  50.84
1214.2  48930.30  24977.09  51.05
1218.2  48765.56  25031.49  51.33
1222.1  48630.48  25110.52  51.64
1226.0  48538.40  25213.34  51.95
1229.9  48450.48  25307.50  52.23
1233.8  48352.03  25387.19  52.50
1237.7  48317.50  25473.90  52.72
1241.6  48229.08  25535.38  52.95
1245.5  48061.09  25552.63  53.17
1249.4  47934.98  25570.31  53.34
1253.3  47803.87  25571.01  53.49
1257.2  47735.46  25586.44  53.60
1261.1  47624.11  25572.35  53.70
1265.0  47490.52  25510.98  53.72
1268.9  47304.07  25384.91  53.66
1272.8  47372.70  25368.80  53.55
1276.7  47590.81  25403.39  53.38
1280.6  47691.16  25344.54  53.14
1284.5  47615.01  25146.43  52.81
1288.4  47591.67  24947.12  52.42
1292.3  47467.75  24660.17  51.95
1296.2  47318.59  24314.73  51.39
1300.1  47148.87  23918.11  50.73
1303.9  46897.39  23428.43  49.96
1307.8  46639.44  22899.46  49.10
1311.7  46386.67  22338.74  48.16
1315.6  46123.85  21749.25  47.15
1319.5  45848.18  21120.96  46.07
1323.3  45606.50  20487.03  44.92
1327.2  45386.16  19858.27  43.75
1331.1  45132.53  19221.19  42.59
