/*** Spectra Vista SIG Data ***/
name= GS.sig
comm= SIG file reprocesed for matching/overlap;Averaged Ref/Tar of files: GD2S1,GD2S2,GD2S3
data=
346.4  509.60  201.72  39.58
347.9  549.06  197.66  36.00
349.5  608.40  198.64  32.65
351.1  655.20  199.68  30.48
352.6  708.40  208.73  29.46
354.2  752.68  223.08  29.64
355.7  818.30  228.99  27.98
357.3  873.81  239.26  27.38
358.8  891.23  241.74  27.12
360.4  967.31  253.26  26.18
361.9  1009.93  253.06  25.06
363.5  1059.53  256.23  24.18
365.1  1102.67  260.07  23.59
366.6  1156.59  260.66  22.54
368.2  1218.77  259.65  21.30
369.7  1306.00  259.03  19.83
371.3  1379.56  263.95  19.13
372.8  1457.48  274.45  18.83
374.4  1528.58  281.46  18.41
375.9  1575.56  284.66  18.07
377.4  1632.76  291.10  17.83
379.0  1683.54  295.97  17.58
380.5  1741.87  290.83  16.70
382.1  1805.51  291.07  16.12
383.6  1862.60  292.48  15.70
385.2  1949.75  297.46  15.26
386.7  2036.04  308.20  15.14
388.3  2135.96  321.57  15.06
389.8  2212.47  328.94  14.87
391.3  2314.34  347.20  15.00
392.9  2392.65  358.47  14.98
394.4  2474.90  370.94  14.99
395.9  2552.82  399.83  15.66
397.5  2664.75  420.98  15.80
399.0  2774.82  422.30  15.22
400.6  2852.64  422.61  14.81
402.1  2910.24  415.81  14.29
403.6  2965.71  418.76  14.12
405.1  3036.77  425.01  14.00
406.7  3133.76  428.96  13.69
408.2  3234.33  446.61  13.81
409.7  3330.88  462.19  13.88
411.3  3437.91  482.33  14.03
412.8  3528.93  498.89  14.14
414.3  3634.54  517.65  14.24
415.8  3740.00  533.33  14.26
417.4  3868.37  550.70  14.24
418.9  3954.39  563.35  14.25
420.4  4037.85  573.69  14.21
421.9  4106.74  582.01  14.17
423.5  4196.00  590.76  14.08
425.0  4263.51  591.84  13.88
426.5  4364.50  598.78  13.72
428.0  4488.82  601.38  13.40
429.5  4615.58  612.91  13.28
431.1  4756.23  630.49  13.26
432.6  4917.76  652.37  13.27
434.1  5064.68  674.39  13.32
435.6  5199.35  691.76  13.30
437.1  5333.25  716.95  13.44
438.6  5454.84  738.51  13.54
440.1  5584.70  762.60  13.66
441.6  5717.14  794.32  13.89
443.1  5852.25  829.58  14.18
444.7  5982.11  864.47  14.45
446.2  6104.50  907.61  14.87
447.7  6213.60  948.58  15.27
449.2  6315.84  988.20  15.65
450.7  6414.72  1026.48  16.00
452.2  6543.45  1063.39  16.25
453.7  6682.65  1101.36  16.48
455.2  6842.54  1144.31  16.72
456.7  7029.44  1192.40  16.96
458.2  7231.16  1243.06  17.19
459.7  7428.75  1294.13  17.42
461.2  7633.63  1339.93  17.55
462.7  7815.14  1384.27  17.71
464.2  8000.76  1429.84  17.87
465.7  8191.53  1469.77  17.94
467.2  8352.58  1508.24  18.06
468.7  8552.00  1555.33  18.19
470.2  8711.17  1597.87  18.34
471.7  8854.00  1649.44  18.63
473.2  9050.37  1698.09  18.76
474.6  9252.88  1741.26  18.82
476.1  9378.88  1771.97  18.89
477.6  9464.51  1796.66  18.98
479.1  9567.20  1823.30  19.06
480.6  9658.16  1853.14  19.19
482.1  9797.74  1888.22  19.27
483.6  9963.22  1938.49  19.46
485.1  10140.49  1994.83  19.67
486.6  10356.19  2064.59  19.94
488.0  10562.50  2144.19  20.30
489.5  10784.97  2239.47  20.76
491.0  10998.86  2338.13  21.26
492.5  11224.98  2452.41  21.85
494.0  11462.99  2578.94  22.50
495.4  11663.85  2708.75  23.22
496.9  11870.36  2854.31  24.05
498.4  12074.30  3011.81  24.94
499.9  12278.41  3183.67  25.93
501.4  12476.75  3368.14  27.00
502.8  12664.51  3563.91  28.14
504.3  12846.60  3771.00  29.35
505.8  13033.73  3987.91  30.60
507.2  13172.68  4202.14  31.90
508.7  13289.99  4415.70  33.23
510.2  13412.81  4636.60  34.57
511.6  13494.72  4853.88  35.97
513.1  13630.43  5087.34  37.32
514.6  13795.53  5334.04  38.66
516.0  13946.28  5583.98  40.04
517.5  14135.83  5856.05  41.43
519.0  14365.19  6142.53  42.76
520.5  14579.60  6430.44  44.11
521.9  14828.55  6739.71  45.45
523.4  15093.49  7052.83  46.73
524.8  15349.14  7364.18  47.98
526.3  15633.70  7684.56  49.15
527.8  15915.89  8002.41  50.28
529.2  16178.21  8291.74  51.25
530.7  16455.24  8583.77  52.16
532.1  16698.15  8856.42  53.04
533.6  16994.07  9138.03  53.77
535.0  17295.55  9417.87  54.45
536.5  17581.25  9693.30  55.13
538.0  17895.84  9963.60  55.68
539.4  18160.64  10214.84  56.25
540.9  18488.86  10495.20  56.76
542.3  18738.28  10740.73  57.32
543.8  18940.29  10943.60  57.78
545.2  19020.35  11060.24  58.15
546.6  19057.19  11134.85  58.43
548.1  19121.11  11215.49  58.66
549.5  19166.91  11281.19  58.86
551.0  19217.70  11333.18  58.97
552.4  19311.21  11398.22  59.02
553.9  19371.38  11439.00  59.05
555.3  19461.20  11485.01  59.01
556.8  19596.88  11551.95  58.95
558.2  19743.75  11612.82  58.82
559.6  19902.71  11687.03  58.72
561.1  20117.50  11789.92  58.61
562.5  20332.52  11898.83  58.52
564.0  20611.34  12038.87  58.41
565.4  20865.50  12154.90  58.25
566.8  21177.73  12293.36  58.05
568.3  21463.05  12410.17  57.82
569.7  21776.78  12522.85  57.51
571.1  22080.65  12614.39  57.13
572.6  22373.82  12699.99  56.76
574.0  22675.95  12775.95  56.34
575.4  22958.44  12839.34  55.92
576.9  23231.09  12902.22  55.54
578.3  23477.03  12951.93  55.17
579.7  23721.74  12999.22  54.80
581.1  23920.49  13022.15  54.44
582.6  24132.47  13056.25  54.10
584.0  24305.80  13080.75  53.82
585.4  24549.94  13135.36  53.50
586.8  24845.17  13236.28  53.28
588.3  25201.80  13357.89  53.00
589.7  25517.70  13460.85  52.75
591.1  25735.55  13510.41  52.50
592.5  25883.00  13514.67  52.21
594.0  25998.42  13502.04  51.93
595.4  26057.54  13466.95  51.68
596.8  26115.38  13431.63  51.43
598.2  26174.55  13398.50  51.19
599.6  26202.06  13346.33  50.94
601.0  26298.70  13332.84  50.70
602.4  26372.18  13297.02  50.42
603.9  26501.77  13286.04  50.13
605.3  26625.41  13273.08  49.85
606.7  26749.80  13229.40  49.46
608.1  26941.18  13231.09  49.11
609.5  27151.69  13228.49  48.72
610.9  27387.74  13247.73  48.37
612.3  27589.20  13243.48  48.00
613.7  27871.80  13273.89  47.62
615.1  28061.64  13243.23  47.19
616.5  28235.16  13223.06  46.83
617.9  28534.12  13278.32  46.53
619.3  28808.15  13344.51  46.32
620.7  29149.14  13464.53  46.19
622.1  29527.66  13558.52  45.92
623.5  29951.83  13664.97  45.62
624.9  30436.35  13820.76  45.41
626.3  30757.12  13916.87  45.25
627.7  30461.43  13741.90  45.11
629.1  30188.34  13596.59  45.04
630.5  30083.03  13522.22  44.95
631.9  30076.12  13498.54  44.88
633.3  30078.24  13451.82  44.72
634.7  30183.54  13459.54  44.59
636.1  30268.81  13398.06  44.26
637.5  30374.19  13324.90  43.87
638.9  30520.15  13249.23  43.41
640.2  30643.60  13145.83  42.90
641.6  30733.56  12996.36  42.29
643.0  30777.50  12785.29  41.54
644.4  30869.16  12579.34  40.75
645.8  30855.38  12337.39  39.98
647.2  31023.20  12191.92  39.30
648.5  31185.15  12045.76  38.63
649.9  31117.13  11835.50  38.04
651.3  31099.80  11652.23  37.47
652.7  31059.00  11441.00  36.84
654.1  30961.56  11076.56  35.78
655.5  30829.51  10688.58  34.67
656.8  30685.81  10293.18  33.54
658.2  30861.69  10035.25  32.52
659.6  31181.89  9822.96  31.50
660.9  31452.29  9579.64  30.46
662.3  31767.46  9319.19  29.34
663.7  32102.70  9056.95  28.21
665.0  32334.98  8799.61  27.21
666.4  32575.38  8558.39  26.27
667.8  32873.84  8374.47  25.47
669.1  33084.01  8202.50  24.79
670.5  33327.47  8090.34  24.28
671.9  33513.12  7982.86  23.82
673.2  33742.50  7947.89  23.55
674.6  33950.66  7941.55  23.39
676.0  34219.05  8002.27  23.39
677.3  34494.18  8112.54  23.52
678.7  34767.13  8288.21  23.84
680.0  35103.31  8578.45  24.44
681.4  35420.13  8984.20  25.36
682.8  35763.00  9536.80  26.67
684.1  36073.44  10262.07  28.45
685.5  36318.59  11142.00  30.68
686.8  36607.26  12201.60  33.33
688.2  36844.31  13406.73  36.39
689.5  36898.97  14675.51  39.77
690.9  36950.15  16020.30  43.36
692.2  37008.15  17412.25  47.05
693.6  37024.93  18830.87  50.86
694.9  37005.38  20189.96  54.56
696.2  37027.13  21524.55  58.13
697.6  37047.86  22795.81  61.53
698.9  37049.76  24009.04  64.80
700.3  37075.62  25142.06  67.81
701.6  37124.24  26203.89  70.58
703.0  37178.40  27170.16  73.08
704.3  37172.20  28006.23  75.34
705.6  37157.22  28766.76  77.42
707.0  37168.46  29471.05  79.29
708.3  37076.04  30040.83  81.02
709.6  36967.81  30544.61  82.62
711.0  36867.73  30957.68  83.97
712.3  36770.31  31319.57  85.18
713.6  36755.88  31710.84  86.27
714.9  36684.64  32038.45  87.33
716.3  36701.44  32393.46  88.26
717.6  36734.04  32735.26  89.11
718.9  36680.73  32962.16  89.86
720.2  36496.25  33066.36  90.60
721.6  36394.28  33182.52  91.18
722.9  36240.12  33262.96  91.78
724.2  36067.30  33252.86  92.20
725.5  35963.70  33288.92  92.56
726.8  35833.96  33284.71  92.89
728.1  35810.80  33329.42  93.07
729.5  35779.10  33358.34  93.23
730.8  35779.13  33394.31  93.33
732.1  35704.25  33389.91  93.52
733.4  35690.92  33412.04  93.61
734.7  35685.89  33422.73  93.66
736.0  35729.66  33476.40  93.69
737.3  35717.44  33494.69  93.78
738.6  35830.21  33634.31  93.87
739.9  36014.88  33869.41  94.04
741.2  36161.58  34050.38  94.16
742.5  36363.94  34356.59  94.48
743.8  36737.66  34832.39  94.81
745.1  37309.08  35500.10  95.15
746.4  37926.98  36260.70  95.61
747.7  38536.99  37017.75  96.06
749.0  39118.92  37745.66  96.49
750.3  39493.02  38120.27  96.52
751.6  39440.80  38035.65  96.44
752.9  39084.79  37681.05  96.41
754.2  38731.25  37286.57  96.27
755.4  38386.91  36882.41  96.08
756.7  38244.09  36796.13  96.21
758.0  38261.36  36896.08  96.43
759.3  38489.95  37186.48  96.61
760.6  38786.44  37577.54  96.88
761.9  39062.28  37938.94  97.12
763.1  39197.21  38147.86  97.32
764.4  39371.54  38403.85  97.54
765.7  39490.75  38601.88  97.75
767.0  39577.16  38761.99  97.94
768.2  39644.64  38909.36  98.15
769.5  39697.68  39023.29  98.30
770.8  39836.32  39220.50  98.45
772.0  39856.44  39291.60  98.58
773.3  39898.95  39393.90  98.73
774.6  39978.84  39525.28  98.87
775.8  40054.79  39636.19  98.95
777.1  40085.96  39699.37  99.04
778.4  40059.57  39664.43  99.01
779.6  39999.54  39689.73  99.23
780.9  39948.00  39656.00  99.27
782.1  39837.20  39552.80  99.29
783.4  39802.88  39585.17  99.45
784.6  39851.08  39656.34  99.51
785.9  40095.40  39992.82  99.74
787.1  40531.58  40601.40  100.17
788.4  40834.19  41009.12  100.43
789.6  40796.10  40887.91  100.23
790.9  40479.11  40445.20  99.92
792.1  40128.24  40035.52  99.77
793.4  39739.41  39651.55  99.78
794.6  39507.48  39381.88  99.68
795.8  39314.07  39153.39  99.59
797.1  39097.95  38933.25  99.58
798.3  38940.83  38780.50  99.59
799.5  38821.14  38708.83  99.71
800.8  38733.05  38611.07  99.69
802.0  38591.76  38504.37  99.77
803.2  38469.72  38380.83  99.77
804.5  38377.94  38301.80  99.80
805.7  38264.87  38191.76  99.81
806.9  38181.95  38085.42  99.75
808.1  38074.65  38010.48  99.83
809.4  38033.33  37979.63  99.86
810.6  37951.55  37914.39  99.90
811.8  37942.61  37902.98  99.90
813.0  37965.80  37950.44  99.96
814.2  37975.49  37997.99  100.06
815.4  38039.93  38094.82  100.14
816.6  38032.65  38125.82  100.24
817.9  38050.16  38156.13  100.28
819.1  37997.24  38072.18  100.20
820.3  37865.18  37921.52  100.15
821.5  37787.61  37818.62  100.08
822.7  37714.41  37751.29  100.10
823.9  37704.87  37732.33  100.07
825.1  37688.07  37694.14  100.02
826.3  37716.38  37692.15  99.94
827.5  37726.06  37669.98  99.85
828.7  37779.60  37670.16  99.71
829.9  37796.29  37662.92  99.65
831.0  37849.02  37681.30  99.56
832.2  37913.75  37730.39  99.52
833.4  37950.44  37751.16  99.47
834.6  37978.13  37815.63  99.57
835.8  38031.53  37861.43  99.55
837.0  38073.26  37963.61  99.71
838.1  38178.69  38084.75  99.75
839.3  38239.24  38169.44  99.82
840.5  38296.24  38267.48  99.92
841.7  38381.58  38426.54  100.12
842.9  38485.06  38583.13  100.25
844.0  38543.94  38685.70  100.37
845.2  38626.85  38845.92  100.57
846.4  38724.98  38961.37  100.61
847.5  38888.12  39174.77  100.74
848.7  39002.30  39354.34  100.90
849.9  39141.74  39505.43  100.93
851.0  39173.78  39544.48  100.95
852.2  39245.07  39585.71  100.87
853.3  39202.67  39572.10  100.94
854.5  39188.19  39565.40  100.96
855.6  39170.88  39565.85  101.01
856.8  39193.80  39613.15  101.07
857.9  39192.81  39606.75  101.06
859.1  39326.60  39718.23  101.00
860.2  39300.24  39739.84  101.12
861.4  39344.78  39771.41  101.08
862.5  39384.29  39809.41  101.08
863.7  39467.66  39875.16  101.03
864.8  39454.45  39893.35  101.11
865.9  39398.65  39841.74  101.12
867.1  39448.45  39858.16  101.04
868.2  39441.53  39861.00  101.06
869.3  39465.67  39867.81  101.02
870.5  39438.89  39803.67  100.92
871.6  39473.54  39802.55  100.83
872.7  39541.37  39848.35  100.78
873.9  39548.50  39858.81  100.78
875.0  39546.05  39815.41  100.68
876.1  39583.15  39793.68  100.53
877.2  39616.79  39804.77  100.47
878.3  39601.98  39769.25  100.42
879.4  39662.11  39793.34  100.33
880.5  39702.60  39790.92  100.22
881.7  39698.10  39709.37  100.03
882.8  39775.46  39743.87  99.92
883.9  39785.32  39705.05  99.80
885.0  39766.55  39595.01  99.57
886.1  39735.85  39518.13  99.45
887.2  39664.66  39314.44  99.12
888.3  39567.00  39190.81  99.05
889.4  39535.02  39047.65  98.77
890.5  39459.91  38931.62  98.66
891.6  39428.33  38823.82  98.47
892.7  39429.01  38785.13  98.37
893.8  39492.50  38761.16  98.15
894.9  39505.51  38721.85  98.02
896.0  39527.49  38667.87  97.83
897.0  39487.40  38634.94  97.84
898.1  39490.45  38611.24  97.77
899.2  39536.22  38569.53  97.55
900.3  39503.73  38455.18  97.35
901.4  39454.09  38343.22  97.18
902.4  39461.49  38325.09  97.12
903.5  39418.10  38207.47  96.93
904.6  39431.18  38180.45  96.83
905.7  39454.64  38120.94  96.62
906.7  39397.52  38059.86  96.60
907.8  39514.80  38049.14  96.29
908.9  39443.33  37933.88  96.17
909.9  39411.21  37857.35  96.06
911.0  39357.50  37735.99  95.88
912.1  39280.99  37612.32  95.75
913.1  39233.48  37479.78  95.53
914.2  39173.92  37310.86  95.24
915.2  39170.79  37197.77  94.96
916.3  39094.50  37156.53  95.04
917.3  39076.47  37030.71  94.76
918.4  39031.30  36887.77  94.51
919.4  39022.48  36747.54  94.17
920.5  39026.74  36654.28  93.92
921.5  39018.63  36520.65  93.60
922.6  38959.72  36354.68  93.31
923.6  39026.05  36276.74  92.96
924.7  39022.50  36164.79  92.68
925.7  39030.84  36033.48  92.32
926.7  39009.32  35921.27  92.08
927.8  39032.57  35781.70  91.67
928.8  39142.62  35739.00  91.30
929.9  39330.10  35672.93  90.70
930.9  39447.46  35683.49  90.46
931.9  39602.61  35654.65  90.03
932.9  39864.58  35773.82  89.74
934.0  39909.81  35623.16  89.26
935.0  39942.68  35508.53  88.90
936.0  39929.50  35292.18  88.39
937.0  39883.94  35080.34  87.96
938.1  39848.52  34907.27  87.60
939.1  39753.89  34708.54  87.31
940.1  39867.76  34576.74  86.73
941.1  39995.43  34596.68  86.50
942.1  40229.45  34597.25  86.00
943.1  40393.76  34561.93  85.56
944.1  40552.56  34543.82  85.18
945.2  40570.32  34387.99  84.76
946.2  40685.67  34254.33  84.19
947.2  40740.25  34092.88  83.68
948.2  40874.09  34032.28  83.26
949.2  40954.06  33849.84  82.65
950.2  41026.00  33652.09  82.03
951.2  41012.16  33479.46  81.63
952.2  41170.94  33335.77  80.97
953.2  41257.13  33205.33  80.48
954.2  41395.95  33117.26  80.00
955.2  41401.94  32932.08  79.54
956.2  41391.82  32724.17  79.06
957.2  41524.97  32597.87  78.50
958.2  41486.28  32536.18  78.43
959.2  41625.00  32461.95  77.99
960.1  41647.94  32414.59  77.83
961.1  41725.78  32395.36  77.64
962.1  41752.50  32320.78  77.41
963.1  41720.60  32350.04  77.54
964.1  41837.60  32333.87  77.28
965.1  41932.95  32421.62  77.32
966.1  41961.44  32407.16  77.23
967.0  42058.17  32459.04  77.18
968.0  42094.69  32425.04  77.03
969.0  42115.20  32460.23  77.07
970.0  42092.26  32512.79  77.24
971.0  42266.18  32567.36  77.05
971.9  42275.33  32568.53  77.04
972.9  42388.85  32631.71  76.98
973.9  42492.13  32722.79  77.01
974.9  42580.28  32740.94  76.89
975.8  42630.52  32819.63  76.99
976.8  42806.43  32867.26  76.78
977.8  42848.34  32967.20  76.94
978.8  42868.95  33017.15  77.02
979.7  43050.58  33137.46  76.97
981.4  43484.76  31706.45  72.91
985.3  43466.28  31892.75  73.37
989.3  43739.41  32262.04  73.76
993.3  44088.36  32641.12  74.04
997.2  44246.85  32912.39  74.38
1001.2  44240.69  33163.87  74.96
1005.2  44147.66  33455.20  75.78
1009.1  44170.72  33904.76  76.76
1013.1  44298.35  34437.58  77.74
1017.1  44409.64  34959.63  78.72
1021.0  44418.65  35387.65  79.67
1025.0  44431.92  35796.66  80.57
1029.0  44310.95  36096.39  81.46
1032.9  44196.36  36380.80  82.32
1036.9  44214.81  36781.11  83.19
1040.9  44317.48  37262.60  84.08
1044.8  44471.57  37789.60  84.97
1048.8  44586.22  38262.84  85.82
1052.7  44660.98  38654.74  86.55
1056.7  44664.90  38933.40  87.17
1060.7  44652.74  39144.74  87.66
1064.6  44643.90  39307.03  88.05
1068.6  44545.19  39334.29  88.30
1072.5  44448.63  39297.43  88.41
1076.5  44390.31  39246.41  88.41
1080.4  44363.13  39170.49  88.30
1084.4  44428.99  39117.29  88.04
1088.3  44526.89  39033.95  87.66
1092.3  44515.11  38801.07  87.16
1096.2  44485.25  38535.02  86.62
1100.2  44489.30  38300.35  86.09
1104.1  44387.15  37932.27  85.46
1108.1  44344.78  37608.12  84.81
1112.0  44255.25  37223.81  84.11
1116.0  44078.91  36715.90  83.30
1119.9  43920.46  36161.30  82.33
1123.9  43980.05  35645.40  81.05
1127.8  43933.44  34855.68  79.34
1131.8  43891.20  33816.29  77.05
1135.7  43904.71  32607.37  74.27
1139.6  43873.24  31283.33  71.30
1143.6  43814.30  29987.00  68.44
1147.5  43764.96  28879.38  65.99
1151.4  43600.54  27958.67  64.12
1155.4  43567.43  27386.88  62.86
1159.3  43548.37  27033.66  62.08
1163.2  43379.84  26700.16  61.55
1167.2  43333.14  26532.30  61.23
1171.1  43320.14  26436.41  61.03
1175.0  43247.45  26307.04  60.83
1179.0  43203.54  26199.11  60.64
1182.9  43281.26  26160.27  60.44
1186.8  43262.79  26078.26  60.28
1190.7  43059.97  25882.40  60.11
1194.7  42822.73  25683.44  59.98
1198.6  42602.18  25546.29  59.96
1202.5  42456.57  25472.10  60.00
1206.4  42335.53  25442.35  60.10
1210.3  42230.32  25454.66  60.28
1214.2  42126.94  25484.53  60.49
1218.2  41984.08  25517.46  60.78
1222.1  41854.50  25575.57  61.11
1226.0  41760.57  25648.85  61.42
1229.9  41673.90  25717.72  61.71
1233.8  41576.55  25776.48  62.00
1237.7  41528.30  25853.48  62.26
1241.6  41457.25  25901.26  62.48
1245.5  41309.15  25902.05  62.70
1249.4  41175.26  25907.75  62.92
1253.3  41058.30  25910.46  63.11
1257.2  40978.33  25925.87  63.27
1261.1  40873.57  25900.88  63.37
1265.0  40757.89  25842.20  63.40
1268.9  40587.74  25720.59  63.37
1272.8  40626.75  25710.80  63.29
1276.7  40780.33  25753.45  63.15
1280.6  40842.56  25696.40  62.92
1284.5  40748.73  25505.60  62.59
1288.4  40697.88  25315.28  62.20
1292.3  40562.50  25043.33  61.74
1296.2  40411.46  24717.30  61.16
1300.1  40239.63  24340.34  60.49
1303.9  40009.73  23883.91  59.70
1307.8  39785.54  23384.61  58.78
1311.7  39554.21  22850.89  57.77
1315.6  39326.35  22290.24  56.68
1319.5  39086.11  21702.91  55.53
1323.3  38870.69  21109.22  54.31
1327.2  38681.53  20510.25  53.02
1331.1  38474.56  19903.74  51.73
1335.0  38203.08  19278.78  50.46
1338.8  38009.09  18725.11  49.26
1342.7  37876.27  18223.96  48.11
1346.5  37598.34  17658.64  46.97
1350.4  37400.07  17145.20  45.84
1354.3  37094.65  16611.61  44.78
1358.1  36731.71  16082.87  43.78
1362.0  36487.36  15631.98  42.84
1365.8  36370.47  15223.97  41.86
1369.7  36432.94  14833.54  40.71
1373.5  36366.82  14270.21  39.24
1377.4  36166.21  13503.52  37.34
1381.2  35990.96  12626.87  35.08
1385.1  35936.27  11747.69  32.69
1389.0  35813.45  10857.04  30.32
1392.8  35598.92  9957.49  27.97
1396.6  35460.61  9135.81  25.76
1400.5  35253.63  8420.68  23.89
1404.3  35072.57  7842.98  22.36
1408.2  35016.72  7393.42  21.11
1412.0  34945.02  7043.45  20.16
1415.8  34962.39  6798.17  19.44
1419.6  34891.95  6596.83  18.91
1423.5  34842.23  6440.93  18.49
1427.3  34796.45  6327.41  18.18
1431.1  34758.75  6246.50  17.97
1434.9  34669.05  6173.95  17.81
1438.8  34606.94  6125.49  17.70
1442.6  34573.84  6093.89  17.63
1446.4  34441.31  6056.01  17.58
