/*** Spectra Vista SIG Data ***/
name= T1.sig
comm= SIG file reprocesed for matching/overlap;Averaged Ref/Tar of files: RD3T4,RD3T5,RD3T6
data=
346.4  598.78  88.33  14.75
347.9  627.50  85.13  13.57
349.5  677.04  88.40  13.06
351.1  739.44  91.10  12.32
352.6  790.63  92.35  11.68
354.2  841.03  98.61  11.72
355.7  912.59  100.80  11.05
357.3  974.37  105.87  10.87
358.8  992.58  104.15  10.49
360.4  1062.29  111.15  10.46
361.9  1117.88  110.28  9.87
363.5  1149.55  105.49  9.18
365.1  1196.29  106.57  8.91
366.6  1260.16  109.10  8.66
368.2  1349.72  107.89  7.99
369.7  1403.95  109.27  7.78
371.3  1488.21  108.87  7.32
372.8  1577.00  108.90  6.91
374.4  1638.71  115.92  7.07
375.9  1688.10  112.76  6.68
377.4  1740.09  114.49  6.58
379.0  1788.57  110.33  6.17
380.5  1855.73  108.94  5.87
382.1  1905.98  104.61  5.49
383.6  1973.16  102.44  5.19
385.2  2065.25  103.03  4.99
386.7  2149.76  103.97  4.84
388.3  2271.83  109.42  4.82
389.8  2363.45  107.97  4.57
391.3  2453.59  109.54  4.46
392.9  2526.36  116.27  4.60
394.4  2602.50  120.88  4.64
395.9  2690.98  127.48  4.74
397.5  2829.48  135.66  4.79
399.0  2963.31  131.63  4.44
400.6  3033.76  127.54  4.20
402.1  3072.78  116.96  3.81
403.6  3116.75  117.96  3.78
405.1  3199.00  111.66  3.49
406.7  3304.00  110.36  3.34
408.2  3412.53  114.35  3.35
409.7  3521.28  116.18  3.30
411.3  3642.17  118.73  3.26
412.8  3732.75  120.24  3.22
414.3  3845.02  127.60  3.32
415.8  3965.00  133.67  3.37
417.4  4085.95  135.10  3.31
418.9  4192.21  136.28  3.25
420.4  4267.16  132.44  3.10
421.9  4346.32  137.30  3.16
423.5  4413.15  132.01  2.99
425.0  4492.75  135.15  3.01
426.5  4594.55  134.16  2.92
428.0  4712.54  130.95  2.78
429.5  4856.53  133.12  2.74
431.1  5025.20  135.96  2.71
432.6  5198.44  137.52  2.65
434.1  5370.75  139.63  2.60
435.6  5520.56  142.42  2.58
437.1  5670.60  144.43  2.55
438.6  5806.58  144.62  2.49
440.1  5943.54  149.09  2.51
441.6  6091.61  154.33  2.53
443.1  6230.93  154.17  2.47
444.7  6356.12  159.88  2.52
446.2  6474.98  162.79  2.51
447.7  6582.53  161.67  2.46
449.2  6691.68  169.63  2.53
450.7  6814.08  168.34  2.47
452.2  6930.56  168.20  2.43
453.7  7066.33  168.50  2.38
455.2  7233.85  168.01  2.32
456.7  7443.04  174.00  2.34
458.2  7673.27  175.10  2.28
459.7  7920.50  179.90  2.27
461.2  8156.07  183.91  2.25
462.7  8366.46  189.86  2.27
464.2  8568.06  193.25  2.26
465.7  8788.58  197.77  2.25
467.2  8970.50  202.77  2.26
468.7  9176.00  209.20  2.28
470.2  9305.26  216.40  2.33
471.7  9490.50  227.21  2.39
473.2  9788.42  232.93  2.38
474.6  10042.30  238.00  2.37
476.1  10127.24  229.24  2.26
477.6  10169.21  225.63  2.22
479.1  10224.56  224.35  2.19
480.6  10293.47  225.53  2.19
482.1  10426.95  222.90  2.14
483.6  10590.11  227.28  2.15
485.1  10796.39  227.13  2.10
486.6  11041.55  230.54  2.09
488.0  11290.50  237.14  2.10
489.5  11568.25  243.54  2.11
491.0  11840.59  245.32  2.07
492.5  12119.22  254.23  2.10
494.0  12409.65  259.75  2.09
495.4  12660.45  267.74  2.11
496.9  12912.44  275.44  2.13
498.4  13155.80  285.02  2.17
499.9  13408.52  293.92  2.19
501.4  13645.90  299.91  2.20
502.8  13864.50  306.53  2.21
504.3  14081.40  317.40  2.25
505.8  14291.05  327.97  2.29
507.2  14436.37  334.89  2.32
508.7  14548.87  345.40  2.37
510.2  14651.50  354.79  2.42
511.6  14718.08  364.81  2.48
513.1  14838.45  373.63  2.52
514.6  14986.45  384.62  2.57
516.0  15112.04  390.13  2.58
517.5  15305.31  404.13  2.64
519.0  15537.89  413.11  2.66
520.5  15768.60  427.27  2.71
521.9  16045.99  441.51  2.75
523.4  16363.11  457.76  2.80
524.8  16675.79  471.38  2.83
526.3  17027.53  490.86  2.88
527.8  17380.80  506.94  2.92
529.2  17706.86  521.91  2.95
530.7  18056.71  541.03  3.00
532.1  18377.28  555.72  3.02
533.6  18738.23  574.83  3.07
535.0  19114.67  590.78  3.09
536.5  19476.07  610.39  3.13
538.0  19846.24  629.16  3.17
539.4  20198.95  644.41  3.19
540.9  20626.19  667.03  3.23
542.3  20984.92  690.68  3.29
543.8  21250.33  708.14  3.33
545.2  21329.19  719.97  3.38
546.6  21331.64  721.14  3.38
548.1  21362.06  731.55  3.42
549.5  21376.46  738.51  3.45
551.0  21386.66  746.64  3.49
552.4  21443.54  759.50  3.54
553.9  21463.89  769.82  3.59
555.3  21521.57  782.73  3.64
556.8  21650.10  796.49  3.68
558.2  21773.81  813.38  3.74
559.6  21936.94  829.44  3.78
561.1  22168.25  848.14  3.83
562.5  22423.78  871.55  3.89
564.0  22757.43  898.59  3.95
565.4  23059.14  923.58  4.01
566.8  23449.52  954.66  4.07
568.3  23818.66  986.59  4.14
569.7  24198.01  1023.14  4.23
571.1  24579.14  1054.89  4.29
572.6  24952.86  1090.04  4.37
574.0  25317.60  1127.17  4.45
575.4  25678.69  1167.98  4.55
576.9  26008.29  1207.90  4.64
578.3  26306.64  1246.25  4.74
579.7  26593.28  1288.98  4.85
581.1  26823.10  1330.20  4.96
582.6  27065.10  1372.33  5.07
584.0  27286.52  1416.44  5.19
585.4  27587.92  1472.57  5.34
586.8  27978.96  1540.40  5.51
588.3  28419.30  1609.61  5.66
589.7  28786.68  1678.56  5.83
591.1  29016.81  1742.01  6.00
592.5  29127.43  1789.94  6.15
594.0  29186.34  1844.67  6.32
595.4  29194.56  1889.77  6.47
596.8  29193.45  1943.65  6.66
598.2  29177.08  1995.50  6.84
599.6  29153.88  2048.61  7.03
601.0  29216.28  2110.36  7.22
602.4  29261.60  2175.53  7.43
603.9  29364.60  2239.51  7.63
605.3  29484.10  2306.52  7.82
606.7  29584.80  2371.92  8.02
608.1  29785.49  2447.19  8.22
609.5  30013.28  2523.43  8.41
610.9  30296.78  2605.41  8.60
612.3  30557.28  2687.76  8.80
613.7  30914.00  2781.66  9.00
615.1  31159.08  2868.05  9.20
616.5  31406.64  2959.30  9.42
617.9  31801.61  3061.95  9.63
619.3  32170.62  3165.38  9.84
620.7  32635.92  3280.60  10.05
622.1  33083.75  3393.39  10.26
623.5  33564.04  3517.88  10.48
624.9  34116.86  3654.18  10.71
626.3  34490.69  3782.53  10.97
627.7  34145.81  3835.02  11.23
629.1  33851.16  3902.48  11.53
630.5  33743.57  3983.57  11.81
631.9  33775.53  4074.81  12.06
633.3  33808.52  4157.25  12.30
634.7  33992.91  4240.44  12.47
636.1  34075.08  4308.53  12.64
637.5  34196.58  4362.93  12.76
638.9  34374.61  4393.51  12.78
640.2  34545.58  4390.71  12.71
641.6  34634.34  4358.02  12.58
643.0  34657.83  4299.38  12.41
644.4  34696.37  4223.82  12.17
645.8  34653.86  4117.44  11.88
647.2  34834.41  4035.16  11.58
648.5  34958.93  3936.25  11.26
649.9  34861.32  3823.45  10.97
651.3  34789.65  3740.68  10.75
652.7  34680.00  3670.81  10.58
654.1  34452.30  3652.12  10.60
655.5  34172.42  3638.06  10.65
656.8  33904.63  3621.57  10.68
658.2  34070.04  3622.21  10.63
659.6  34442.82  3629.24  10.54
660.9  34748.70  3600.50  10.36
662.3  35067.95  3569.05  10.18
663.7  35364.00  3524.36  9.97
665.0  35617.00  3470.14  9.74
666.4  35877.31  3417.85  9.53
667.8  36209.10  3380.61  9.34
669.1  36482.80  3349.71  9.18
670.5  36799.72  3331.32  9.05
671.9  36995.40  3314.05  8.96
673.2  37270.13  3322.30  8.91
674.6  37530.47  3348.97  8.92
676.0  37841.78  3395.86  8.97
677.3  38141.57  3469.04  9.10
678.7  38483.75  3577.65  9.30
680.0  38922.37  3734.34  9.59
681.4  39389.45  3953.06  10.04
682.8  39844.35  4230.89  10.62
684.1  40287.78  4594.82  11.40
685.5  40705.56  5033.88  12.37
686.8  41091.84  5549.43  13.50
688.2  41433.89  6138.47  14.82
689.5  41549.57  6747.75  16.24
690.9  41633.44  7391.90  17.75
692.2  41697.60  8045.93  19.30
693.6  41771.65  8695.84  20.82
694.9  41721.88  9290.93  22.27
696.2  41751.90  9875.45  23.65
697.6  41766.04  10435.20  24.98
698.9  41796.48  10961.28  26.23
700.3  41844.24  11451.45  27.37
701.6  41918.48  11919.46  28.43
703.0  41979.40  12354.91  29.43
704.3  41981.71  12732.73  30.33
705.6  41967.18  13068.73  31.14
707.0  41980.75  13388.57  31.89
708.3  41872.71  13633.43  32.56
709.6  41753.67  13858.05  33.19
711.0  41589.99  14038.85  33.76
712.3  41418.66  14193.78  34.27
713.6  41354.04  14373.07  34.76
714.9  41240.96  14521.19  35.21
716.3  41218.54  14679.98  35.61
717.6  41221.95  14843.51  36.01
718.9  41134.56  14960.97  36.37
720.2  40936.00  15016.69  36.68
721.6  40765.66  15086.15  37.01
722.9  40572.15  15122.70  37.27
724.2  40305.71  15120.50  37.51
725.5  40134.57  15124.48  37.68
726.8  39960.91  15129.70  37.86
728.1  39855.98  15152.38  38.02
729.5  39766.23  15165.66  38.14
730.8  39707.44  15178.89  38.23
732.1  39612.07  15173.47  38.31
733.4  39556.45  15165.68  38.34
734.7  39507.57  15165.19  38.39
736.0  39511.29  15180.91  38.42
737.3  39463.58  15171.46  38.44
738.6  39569.04  15241.44  38.52
739.9  39770.92  15346.17  38.59
741.2  39928.98  15421.22  38.62
742.5  40206.42  15546.78  38.67
743.8  40696.43  15750.55  38.70
745.1  41398.16  16050.69  38.77
746.4  42245.84  16399.99  38.82
747.7  43136.62  16774.12  38.89
749.0  43980.49  17157.12  39.01
750.3  44484.44  17407.99  39.13
751.6  44396.66  17426.64  39.25
752.9  43969.12  17266.76  39.27
754.2  43470.53  17082.24  39.30
755.4  42928.75  16857.80  39.27
756.7  42746.48  16785.91  39.27
758.0  42774.71  16813.26  39.31
759.3  43048.01  16932.85  39.33
760.6  43418.76  17091.74  39.36
761.9  43775.94  17239.98  39.38
763.1  43996.61  17331.10  39.39
764.4  44239.34  17453.41  39.45
765.7  44424.25  17541.98  39.49
767.0  44583.75  17617.52  39.52
768.2  44688.00  17676.73  39.56
769.5  44782.92  17721.10  39.57
770.8  44990.42  17811.83  39.59
772.0  45014.41  17839.39  39.63
773.3  45100.97  17892.24  39.67
774.6  45226.84  17964.65  39.72
775.8  45313.45  18030.45  39.79
777.1  45344.81  18063.14  39.84
778.4  45245.88  18042.40  39.88
779.6  45226.44  18061.23  39.94
780.9  45132.00  18043.47  39.98
782.1  44952.26  17978.19  39.99
783.4  44936.32  17990.06  40.03
784.6  44935.72  18001.97  40.06
785.9  45255.62  18151.01  40.11
787.1  45836.93  18425.15  40.20
788.4  46288.94  18710.70  40.42
789.6  46219.23  18759.76  40.59
790.9  45788.99  18585.56  40.59
792.1  45296.16  18390.44  40.60
793.4  44771.54  18195.85  40.64
794.6  44415.30  18095.82  40.74
795.8  44134.47  17996.47  40.78
797.1  43801.05  17873.92  40.81
798.3  43569.08  17803.04  40.86
799.5  43411.48  17770.71  40.94
800.8  43273.13  17729.38  40.97
802.0  43071.08  17671.09  41.03
803.2  42890.28  17621.67  41.09
804.5  42742.15  17584.99  41.14
805.7  42601.95  17535.54  41.16
806.9  42426.40  17488.52  41.22
808.1  42305.67  17458.32  41.27
809.4  42221.44  17444.27  41.32
810.6  42105.70  17393.74  41.31
811.8  42062.43  17381.60  41.32
813.0  42071.08  17379.80  41.31
814.2  42081.20  17383.32  41.31
815.4  42185.03  17429.52  41.32
816.6  42225.34  17443.79  41.31
817.9  42273.21  17458.44  41.30
819.1  42166.58  17417.81  41.31
820.3  42039.03  17331.43  41.23
821.5  41905.07  17257.98  41.18
822.7  41849.58  17202.99  41.11
823.9  41838.35  17166.24  41.03
825.1  41851.34  17128.62  40.93
826.3  41890.94  17099.18  40.82
827.5  41937.05  17071.62  40.71
828.7  42011.28  17038.59  40.56
829.9  42039.57  16996.59  40.43
831.0  42140.75  16989.24  40.32
832.2  42235.78  16981.22  40.21
833.4  42305.18  16970.77  40.12
834.6  42417.19  16969.38  40.01
835.8  42496.65  16964.96  39.92
837.0  42597.61  16983.43  39.87
838.1  42745.68  17031.15  39.84
839.3  42856.00  17038.51  39.76
840.5  42989.60  17068.65  39.70
841.7  43156.80  17117.20  39.66
842.9  43298.86  17150.46  39.61
844.0  43430.88  17175.77  39.55
845.2  43568.90  17216.91  39.52
846.4  43732.15  17247.16  39.44
847.5  43960.00  17329.40  39.42
848.7  44164.79  17404.14  39.41
849.9  44393.85  17487.21  39.39
851.0  44478.08  17518.35  39.39
852.2  44569.63  17548.67  39.37
853.3  44562.81  17538.69  39.36
854.5  44594.90  17531.00  39.31
855.6  44615.97  17521.57  39.27
856.8  44687.86  17539.26  39.25
857.9  44681.40  17527.10  39.23
859.1  44832.20  17577.00  39.21
860.2  44876.88  17578.14  39.17
861.4  44954.55  17565.81  39.07
862.5  45021.69  17591.09  39.07
863.7  45150.84  17628.14  39.04
864.8  45213.35  17606.10  38.94
865.9  45167.77  17574.99  38.91
867.1  45241.43  17598.07  38.90
868.2  45295.54  17587.51  38.83
869.3  45314.27  17586.70  38.81
870.5  45282.48  17535.07  38.72
871.6  45315.83  17526.38  38.68
872.7  45413.27  17552.82  38.65
873.9  45478.16  17556.17  38.60
875.0  45456.71  17509.42  38.52
876.1  45452.45  17475.95  38.45
877.2  45498.99  17467.52  38.39
878.3  45519.98  17431.13  38.29
879.4  45563.53  17410.96  38.21
880.5  45631.08  17416.71  38.17
881.7  45596.20  17368.69  38.09
882.8  45693.96  17374.73  38.02
883.9  45722.91  17374.29  38.00
885.0  45675.63  17332.72  37.95
886.1  45712.78  17315.20  37.88
887.2  45537.58  17227.83  37.83
888.3  45475.07  17184.07  37.79
889.4  45347.40  17094.05  37.70
890.5  45259.13  17032.06  37.63
891.6  45193.70  16977.34  37.57
892.7  45201.31  16942.35  37.48
893.8  45270.56  16919.90  37.38
894.9  45248.28  16883.81  37.31
896.0  45235.90  16832.76  37.21
897.0  45257.72  16819.15  37.16
898.1  45230.13  16781.28  37.10
899.2  45252.30  16743.51  37.00
900.3  45165.90  16662.87  36.89
901.4  45101.16  16602.46  36.81
902.4  45077.20  16573.76  36.77
903.5  45018.01  16525.30  36.71
904.6  45035.56  16481.53  36.60
905.7  45038.93  16450.31  36.52
906.7  44985.82  16407.76  36.47
907.8  45025.57  16394.12  36.41
908.9  44904.57  16311.80  36.33
909.9  44897.74  16271.48  36.24
911.0  44830.08  16201.33  36.14
912.1  44749.25  16131.37  36.05
913.1  44707.00  16080.03  35.97
914.2  44554.62  15965.41  35.83
915.2  44505.45  15903.42  35.73
916.3  44491.35  15861.58  35.65
917.3  44461.10  15808.39  35.56
918.4  44383.35  15684.42  35.34
919.4  44330.69  15601.48  35.19
920.5  44315.70  15548.72  35.09
921.5  44285.78  15488.55  34.97
922.6  44268.10  15385.17  34.75
923.6  44262.16  15342.94  34.66
924.7  44333.00  15286.50  34.48
925.7  44276.22  15188.80  34.30
926.7  44252.98  15121.78  34.17
927.8  44374.33  15055.21  33.93
928.8  44502.63  14999.82  33.71
929.9  44598.23  14977.62  33.58
930.9  44802.27  14950.08  33.37
931.9  45011.35  14932.28  33.17
932.9  45355.12  14942.33  32.95
934.0  45370.16  14885.91  32.81
935.0  45397.97  14775.26  32.55
936.0  45413.73  14664.11  32.29
937.0  45319.95  14561.86  32.13
938.1  45295.44  14435.13  31.87
939.1  45257.91  14315.25  31.63
940.1  45342.90  14259.65  31.45
941.1  45568.46  14221.69  31.21
942.1  45803.34  14198.83  31.00
943.1  45999.43  14142.68  30.75
944.1  46171.28  14107.25  30.55
945.2  46338.18  14023.41  30.26
946.2  46411.22  13956.79  30.07
947.2  46518.25  13895.73  29.87
948.2  46693.82  13813.25  29.58
949.2  46838.19  13725.95  29.31
950.2  46912.95  13616.32  29.02
951.2  46909.80  13546.96  28.88
952.2  47054.57  13466.99  28.62
953.2  47260.85  13406.35  28.37
954.2  47365.65  13329.32  28.14
955.2  47408.68  13231.21  27.91
956.2  47434.65  13130.37  27.68
957.2  47543.77  13063.63  27.48
958.2  47601.59  12993.82  27.30
959.2  47735.55  12960.36  27.15
960.1  47775.14  12912.51  27.03
961.1  47870.63  12864.14  26.87
962.1  47933.44  12863.00  26.84
963.1  48032.50  12829.34  26.71
964.1  48057.21  12786.62  26.61
965.1  48243.99  12824.14  26.58
966.1  48335.33  12812.04  26.51
967.0  48410.39  12784.01  26.41
968.0  48434.88  12757.99  26.34
969.0  48556.60  12788.64  26.34
970.0  48603.65  12781.45  26.30
971.0  48737.12  12768.71  26.20
971.9  48722.90  12734.55  26.14
972.9  48879.95  12724.85  26.03
973.9  48859.53  12721.11  26.04
974.9  49044.08  12708.55  25.91
975.8  49101.73  12681.30  25.83
976.8  49135.91  12650.95  25.75
977.8  49315.41  12645.30  25.64
978.8  49372.50  12652.98  25.63
979.7  49504.50  12638.93  25.53
981.4  50850.20  14985.95  29.47
985.3  50481.20  14982.65  29.68
989.3  50535.22  15121.50  29.92
993.3  50635.09  15305.62  30.23
997.2  50595.02  15456.74  30.55
1001.2  50545.04  15612.74  30.89
1005.2  50473.33  15761.36  31.23
1009.1  50535.74  15954.56  31.57
1013.1  50697.93  16210.28  31.97
1017.1  50843.90  16466.22  32.39
1021.0  50855.49  16677.09  32.79
1025.0  50816.26  16898.43  33.25
1029.0  50641.08  17053.64  33.68
1032.9  50496.42  17199.91  34.06
1036.9  50486.34  17402.89  34.47
1040.9  50614.23  17643.17  34.86
1044.8  50848.91  17913.48  35.23
1048.8  51055.33  18148.20  35.55
1052.7  51200.97  18346.69  35.83
1056.7  51265.76  18492.22  36.07
1060.7  51328.86  18601.01  36.24
1064.6  51364.29  18686.75  36.38
1068.6  51285.22  18700.06  36.46
1072.5  51205.93  18670.27  36.46
1076.5  51155.97  18637.10  36.43
1080.4  51154.95  18596.03  36.35
1084.4  51258.31  18549.74  36.19
1088.3  51367.47  18485.56  35.99
1092.3  51376.13  18351.80  35.72
1096.2  51342.58  18201.60  35.45
1100.2  51360.86  18069.04  35.18
1104.1  51244.60  17864.85  34.86
1108.1  51175.76  17670.28  34.53
1112.0  51059.75  17453.79  34.18
1116.0  50831.30  17184.31  33.81
1119.9  50653.13  16886.98  33.34
1123.9  50703.41  16607.47  32.75
1127.8  50649.60  16200.96  31.99
1131.8  50608.23  15679.42  30.98
1135.7  50617.81  15082.95  29.80
1139.6  50606.06  14412.12  28.48
1143.6  50555.26  13764.51  27.23
1147.5  50517.05  13195.68  26.12
1151.4  50365.69  12689.15  25.19
1155.4  50355.11  12355.36  24.54
1159.3  50376.78  12134.54  24.09
1163.2  50207.59  11942.58  23.79
1167.2  50161.80  11823.60  23.57
1171.1  50174.37  11734.58  23.39
1175.0  50101.08  11638.41  23.23
1179.0  50065.70  11557.27  23.08
1182.9  50165.17  11510.33  22.94
1186.8  50159.61  11436.61  22.80
1190.7  49934.95  11327.17  22.68
1194.7  49665.47  11229.55  22.61
1198.6  49438.62  11156.15  22.57
1202.5  49264.40  11118.43  22.57
1206.4  49122.14  11097.87  22.59
1210.3  49037.26  11087.86  22.61
1214.2  48930.30  11106.54  22.70
1218.2  48765.56  11133.10  22.83
1222.1  48630.48  11163.39  22.96
1226.0  48538.40  11215.73  23.11
1229.9  48450.48  11259.32  23.24
1233.8  48352.03  11286.21  23.34
1237.7  48317.50  11332.82  23.45
1241.6  48229.08  11357.52  23.55
1245.5  48061.09  11354.93  23.63
1249.4  47934.98  11356.04  23.69
1253.3  47803.87  11354.45  23.75
1257.2  47735.46  11363.90  23.81
1261.1  47624.11  11353.93  23.84
1265.0  47490.52  11319.54  23.84
1268.9  47304.07  11268.47  23.82
1272.8  47372.70  11268.90  23.79
1276.7  47590.81  11283.44  23.71
1280.6  47691.16  11250.19  23.59
1284.5  47615.01  11160.40  23.44
1288.4  47591.67  11070.51  23.26
1292.3  47467.75  10937.67  23.04
1296.2  47318.59  10789.06  22.80
1300.1  47148.87  10620.95  22.53
1303.9  46897.39  10408.13  22.19
1307.8  46639.44  10177.64  21.82
1311.7  46386.67  9925.26  21.40
1315.6  46123.85  9660.82  20.95
1319.5  45848.18  9379.18  20.46
1323.3  45606.50  9087.71  19.93
1327.2  45386.16  8794.63  19.38
1331.1  45132.53  8500.93  18.84
1335.0  44824.46  8196.49  18.29
1338.8  44600.56  7926.70  17.77
1342.7  44421.07  7688.93  17.31
1346.5  44042.02  7428.16  16.87
1350.4  43720.62  7192.58  16.45
1354.3  43279.60  6946.39  16.05
1358.1  42799.92  6691.96  15.64
1362.0  42533.76  6454.93  15.18
1365.8  42447.40  6250.73  14.73
1369.7  42569.31  6069.22  14.26
1373.5  42515.11  5823.27  13.70
1377.4  42239.08  5495.00  13.01
1381.2  42024.35  5088.15  12.11
1385.1  42007.68  4662.65  11.10
1389.0  41913.21  4227.94  10.09
1392.8  41686.58  3799.10  9.11
1396.6  41522.45  3420.08  8.24
1400.5  41297.26  3077.26  7.45
1404.3  41119.22  2798.38  6.81
1408.2  41089.83  2581.28  6.28
1412.0  41038.18  2408.75  5.87
1415.8  41063.56  2285.95  5.57
1419.6  41020.11  2180.01  5.31
1423.5  40984.07  2101.45  5.13
1427.3  40938.38  2045.75  5.00
1431.1  40915.35  2003.38  4.90
1434.9  40812.08  1964.19  4.81
1438.8  40755.58  1940.74  4.76
1442.6  40720.04  1927.95  4.73
1446.4  40579.53  1907.00  4.70
1450.2  40476.97  1895.85  4.68
1454.0  40349.16  1888.60  4.68
1457.8  40313.93  1890.38  4.69
1461.6  40291.52  1902.81  4.72
1465.4  40157.17  1914.96  4.77
1469.2  39958.10  1926.17  4.82
1473.0  39808.79  1952.91  4.91
1476.8  39739.71  1993.25  5.02
1480.7  39668.27  2037.42  5.14
1484.4  39532.92  2089.24  5.28
1488.2  39418.92  2154.60  5.47
1492.0  39281.08  2224.73  5.66
1495.8  39157.30  2286.38  5.84
1499.6  39041.55  2338.26  5.99
