/*** Spectra Vista SIG Data ***/
name= ROOT.sig
comm= Averaged Ref/Tar of files: RTB1,RTB2,RTB3
data=
346.4  509.60  57.12  11.21
347.9  549.06  58.36  10.63
349.5  608.40  60.11  9.88
351.1  655.20  63.44  9.68
352.6  708.40  66.84  9.43
354.2  752.68  68.72  9.13
355.7  818.30  74.76  9.14
357.3  873.81  78.37  8.97
358.8  891.23  78.29  8.78
360.4  967.31  84.66  8.75
361.9  1009.93  85.21  8.44
363.5  1059.53  86.56  8.17
365.1  1102.67  86.92  7.88
366.6  1156.59  94.83  8.20
368.2  1218.77  96.47  7.92
369.7  1306.00  98.61  7.55
371.3  1379.56  104.92  7.61
372.8  1457.48  113.32  7.78
374.4  1528.58  114.59  7.50
375.9  1575.56  118.94  7.55
377.4  1632.76  121.21  7.42
379.0  1683.54  126.45  7.51
380.5  1741.87  125.97  7.23
382.1  1805.51  129.43  7.17
383.6  1862.60  132.87  7.13
385.2  1949.75  140.62  7.21
386.7  2036.04  144.58  7.10
388.3  2135.96  151.82  7.11
389.8  2212.47  157.56  7.12
391.3  2314.34  165.43  7.15
392.9  2392.65  173.16  7.24
394.4  2474.90  179.04  7.23
395.9  2552.82  191.54  7.50
397.5  2664.75  195.74  7.35
399.0  2774.82  201.26  7.25
400.6  2852.64  206.78  7.25
402.1  2910.24  210.53  7.23
403.6  2965.71  214.18  7.22
405.1  3036.77  219.51  7.23
406.7  3133.76  226.99  7.24
408.2  3234.33  236.11  7.30
409.7  3330.88  244.61  7.34
411.3  3437.91  253.52  7.37
412.8  3528.93  262.75  7.45
414.3  3634.54  272.00  7.48
415.8  3740.00  282.50  7.55
417.4  3868.37  295.00  7.63
418.9  3954.39  301.74  7.63
420.4  4037.85  310.73  7.70
421.9  4106.74  315.57  7.68
423.5  4196.00  321.30  7.66
425.0  4263.51  327.08  7.67
426.5  4364.50  334.54  7.67
428.0  4488.82  344.82  7.68
429.5  4615.58  357.87  7.75
431.1  4756.23  369.84  7.78
432.6  4917.76  386.81  7.87
434.1  5064.68  402.20  7.94
435.6  5199.35  415.12  7.98
437.1  5333.25  430.95  8.08
438.6  5454.84  445.27  8.16
440.1  5584.70  458.09  8.20
441.6  5717.14  472.05  8.26
443.1  5852.25  487.35  8.33
444.7  5982.11  502.66  8.40
446.2  6104.50  515.16  8.44
447.7  6213.60  526.58  8.47
449.2  6315.84  537.55  8.51
450.7  6414.72  545.65  8.51
452.2  6543.45  558.84  8.54
453.7  6682.65  570.55  8.54
455.2  6842.54  586.37  8.57
456.7  7029.44  606.61  8.63
458.2  7231.16  626.07  8.66
459.7  7428.75  647.15  8.71
461.2  7633.63  667.17  8.74
462.7  7815.14  687.24  8.79
464.2  8000.76  704.18  8.80
465.7  8191.53  725.09  8.85
467.2  8352.58  741.00  8.87
468.7  8552.00  760.93  8.90
470.2  8711.17  776.05  8.91
471.7  8854.00  786.92  8.89
473.2  9050.37  805.64  8.90
474.6  9252.88  829.87  8.97
476.1  9378.88  846.87  9.03
477.6  9464.51  855.17  9.04
479.1  9567.20  861.91  9.01
480.6  9658.16  870.25  9.01
482.1  9797.74  884.19  9.02
483.6  9963.22  900.66  9.04
485.1  10140.49  921.84  9.09
486.6  10356.19  944.78  9.12
488.0  10562.50  970.02  9.18
489.5  10784.97  997.96  9.25
491.0  10998.86  1026.41  9.33
492.5  11224.98  1055.05  9.40
494.0  11462.99  1085.31  9.47
495.4  11663.85  1111.00  9.53
496.9  11870.36  1138.16  9.59
498.4  12074.30  1167.82  9.67
499.9  12278.41  1193.20  9.72
501.4  12476.75  1218.71  9.77
502.8  12664.51  1243.94  9.82
504.3  12846.60  1267.32  9.87
505.8  13033.73  1291.31  9.91
507.2  13172.68  1306.18  9.92
508.7  13289.99  1322.16  9.95
510.2  13412.81  1331.68  9.93
511.6  13494.72  1342.12  9.95
513.1  13630.43  1355.50  9.94
514.6  13795.53  1369.64  9.93
516.0  13946.28  1386.07  9.94
517.5  14135.83  1407.64  9.96
519.0  14365.19  1432.59  9.97
520.5  14579.60  1456.65  9.99
521.9  14828.55  1488.02  10.03
523.4  15093.49  1522.48  10.09
524.8  15349.14  1558.26  10.15
526.3  15633.70  1597.13  10.22
527.8  15915.89  1637.22  10.29
529.2  16178.21  1674.64  10.35
530.7  16455.24  1717.19  10.44
532.1  16698.15  1754.94  10.51
533.6  16994.07  1798.74  10.58
535.0  17295.55  1841.77  10.65
536.5  17581.25  1885.93  10.73
538.0  17895.84  1932.49  10.80
539.4  18160.64  1973.49  10.87
540.9  18488.86  2023.87  10.95
542.3  18738.28  2067.15  11.03
543.8  18940.29  2106.81  11.12
545.2  19020.35  2125.76  11.18
546.6  19057.19  2139.65  11.23
548.1  19121.11  2150.50  11.25
549.5  19166.91  2161.49  11.28
551.0  19217.70  2172.41  11.30
552.4  19311.21  2187.73  11.33
553.9  19371.38  2197.76  11.35
555.3  19461.20  2214.58  11.38
556.8  19596.88  2236.27  11.41
558.2  19743.75  2260.13  11.45
559.6  19902.71  2286.51  11.49
561.1  20117.50  2320.72  11.54
562.5  20332.52  2355.78  11.59
564.0  20611.34  2400.96  11.65
565.4  20865.50  2443.04  11.71
566.8  21177.73  2493.16  11.77
568.3  21463.05  2540.43  11.84
569.7  21776.78  2590.45  11.90
571.1  22080.65  2640.03  11.96
572.6  22373.82  2688.98  12.02
574.0  22675.95  2736.80  12.07
575.4  22958.44  2784.60  12.13
576.9  23231.09  2829.29  12.18
578.3  23477.03  2871.68  12.23
579.7  23721.74  2913.83  12.28
581.1  23920.49  2948.22  12.33
582.6  24132.47  2985.88  12.37
584.0  24305.80  3017.04  12.41
585.4  24549.94  3058.97  12.46
586.8  24845.17  3110.20  12.52
588.3  25201.80  3168.98  12.57
589.7  25517.70  3220.62  12.62
591.1  25735.55  3257.26  12.66
592.5  25883.00  3282.59  12.68
594.0  25998.42  3299.66  12.69
595.4  26057.54  3309.24  12.70
596.8  26115.38  3319.89  12.71
598.2  26174.55  3331.83  12.73
599.6  26202.06  3342.50  12.76
601.0  26298.70  3359.03  12.77
602.4  26372.18  3377.12  12.81
603.9  26501.77  3403.56  12.84
605.3  26625.41  3428.70  12.88
606.7  26749.80  3455.04  12.92
608.1  26941.18  3489.81  12.95
609.5  27151.69  3529.35  13.00
610.9  27387.74  3576.43  13.06
612.3  27589.20  3620.13  13.12
613.7  27871.80  3675.02  13.19
615.1  28061.64  3714.55  13.24
616.5  28235.16  3752.38  13.29
617.9  28534.12  3815.02  13.37
619.3  28808.15  3873.83  13.45
620.7  29149.14  3942.11  13.52
622.1  29527.66  4009.29  13.58
623.5  29951.83  4108.35  13.72
624.9  30436.35  4218.41  13.86
626.3  30757.12  4292.93  13.96
627.7  30461.43  4290.25  14.08
629.1  30188.34  4273.29  14.16
630.5  30083.03  4234.38  14.08
631.9  30076.12  4193.50  13.94
633.3  30078.24  4088.83  13.59
634.7  30183.54  4006.19  13.27
636.1  30268.81  3897.60  12.88
637.5  30374.19  3835.31  12.63
638.9  30520.15  3863.09  12.66
640.2  30643.60  3965.51  12.94
641.6  30733.56  4129.17  13.44
643.0  30777.50  4307.43  14.00
644.4  30869.16  4468.11  14.47
645.8  30855.38  4575.62  14.83
647.2  31023.20  4683.78  15.10
648.5  31185.15  4755.83  15.25
649.9  31117.13  4772.73  15.34
651.3  31099.80  4798.08  15.43
652.7  31059.00  4793.49  15.43
654.1  30961.56  4691.55  15.15
655.5  30829.51  4582.20  14.86
656.8  30685.81  4484.58  14.61
658.2  30861.69  4469.86  14.48
659.6  31181.89  4500.99  14.43
660.9  31452.29  4539.96  14.43
662.3  31767.46  4573.85  14.40
663.7  32102.70  4611.60  14.37
665.0  32334.98  4645.92  14.37
666.4  32575.38  4684.66  14.38
667.8  32873.84  4736.64  14.41
669.1  33084.01  4781.89  14.45
670.5  33327.47  4833.51  14.50
671.9  33513.12  4876.55  14.55
673.2  33742.50  4933.77  14.62
674.6  33950.66  4980.77  14.67
676.0  34219.05  5041.70  14.73
677.3  34494.18  5099.51  14.78
678.7  34767.13  5153.98  14.82
680.0  35103.31  5221.26  14.87
681.4  35420.13  5285.04  14.92
682.8  35763.00  5366.58  15.01
684.1  36073.44  5438.31  15.08
685.5  36318.59  5515.66  15.19
686.8  36607.26  5592.89  15.28
688.2  36844.31  5657.82  15.36
689.5  36898.97  5705.58  15.46
690.9  36950.15  5744.36  15.55
692.2  37008.15  5776.77  15.61
693.6  37024.93  5811.84  15.70
694.9  37005.38  5825.15  15.74
696.2  37027.13  5856.03  15.82
697.6  37047.86  5883.70  15.88
698.9  37049.76  5908.85  15.95
700.3  37075.62  5940.57  16.02
701.6  37124.24  5965.32  16.07
703.0  37178.40  5989.64  16.11
704.3  37172.20  5993.52  16.12
705.6  37157.22  6004.08  16.16
707.0  37168.46  6014.99  16.18
708.3  37076.04  6029.88  16.26
709.6  36967.81  6046.03  16.35
711.0  36867.73  6048.96  16.41
712.3  36770.31  6062.47  16.49
713.6  36755.88  6069.14  16.51
714.9  36684.64  6068.39  16.54
716.3  36701.44  6078.17  16.56
717.6  36734.04  6076.99  16.54
718.9  36680.73  6060.55  16.52
720.2  36496.25  6029.83  16.52
721.6  36394.28  6015.28  16.53
722.9  36240.12  5999.24  16.55
724.2  36067.30  5985.08  16.59
725.5  35963.70  5985.14  16.64
726.8  35833.96  5977.33  16.68
728.1  35810.80  5982.36  16.71
729.5  35779.10  5980.51  16.72
730.8  35779.13  5990.38  16.74
732.1  35704.25  5996.15  16.79
733.4  35690.92  6004.98  16.82
734.7  35685.89  6012.59  16.85
736.0  35729.66  6027.88  16.87
737.3  35717.44  6033.58  16.89
738.6  35830.21  6066.22  16.93
739.9  36014.88  6109.28  16.96
741.2  36161.58  6153.06  17.02
742.5  36363.94  6225.41  17.12
743.8  36737.66  6314.39  17.19
745.1  37309.08  6445.69  17.28
746.4  37926.98  6595.50  17.39
747.7  38536.99  6738.08  17.48
749.0  39118.92  6861.68  17.54
750.3  39493.02  6914.69  17.51
751.6  39440.80  6900.25  17.50
752.9  39084.79  6837.39  17.49
754.2  38731.25  6782.34  17.51
755.4  38386.91  6732.29  17.54
756.7  38244.09  6736.85  17.62
758.0  38261.36  6778.25  17.72
759.3  38489.95  6867.03  17.84
760.6  38786.44  6967.57  17.96
761.9  39062.28  7060.51  18.08
763.1  39197.21  7117.85  18.16
764.4  39371.54  7166.34  18.20
765.7  39490.75  7203.73  18.24
767.0  39577.16  7251.19  18.32
768.2  39644.64  7298.37  18.41
769.5  39697.68  7349.45  18.51
770.8  39836.32  7404.49  18.59
772.0  39856.44  7437.41  18.66
773.3  39898.95  7475.94  18.74
774.6  39978.84  7494.59  18.75
775.8  40054.79  7513.13  18.76
777.1  40085.96  7521.35  18.76
778.4  40059.57  7533.89  18.81
779.6  39999.54  7557.65  18.89
780.9  39948.00  7568.27  18.95
782.1  39837.20  7584.62  19.04
783.4  39802.88  7610.58  19.12
784.6  39851.08  7646.36  19.19
785.9  40095.40  7740.18  19.30
787.1  40531.58  7860.27  19.39
788.4  40834.19  7899.11  19.34
789.6  40796.10  7816.38  19.16
790.9  40479.11  7719.67  19.07
792.1  40128.24  7677.22  19.13
793.4  39739.41  7626.78  19.19
794.6  39507.48  7568.66  19.16
795.8  39314.07  7538.98  19.18
797.1  39097.95  7506.05  19.20
798.3  38940.83  7500.19  19.26
799.5  38821.14  7485.64  19.28
800.8  38733.05  7477.67  19.31
802.0  38591.76  7465.53  19.34
803.2  38469.72  7464.03  19.40
804.5  38377.94  7463.03  19.45
805.7  38264.87  7443.74  19.45
806.9  38181.95  7425.23  19.45
808.1  38074.65  7406.85  19.45
809.4  38033.33  7400.06  19.46
810.6  37951.55  7393.14  19.48
811.8  37942.61  7412.33  19.54
813.0  37965.80  7437.73  19.59
814.2  37975.49  7473.45  19.68
815.4  38039.93  7511.69  19.75
816.6  38032.65  7530.42  19.80
817.9  38050.16  7538.54  19.81
819.1  37997.24  7526.57  19.81
820.3  37865.18  7514.19  19.84
821.5  37787.61  7515.96  19.89
822.7  37714.41  7521.68  19.94
823.9  37704.87  7544.33  20.01
825.1  37688.07  7567.68  20.08
826.3  37716.38  7597.78  20.14
827.5  37726.06  7622.82  20.21
828.7  37779.60  7650.46  20.25
829.9  37796.29  7673.57  20.30
831.0  37849.02  7710.41  20.37
832.2  37913.75  7741.15  20.42
833.4  37950.44  7771.22  20.48
834.6  37978.13  7803.44  20.55
835.8  38031.53  7843.50  20.62
837.0  38073.26  7887.99  20.72
838.1  38178.69  7939.88  20.80
839.3  38239.24  7992.64  20.90
840.5  38296.24  8048.06  21.02
841.7  38381.58  8090.90  21.08
842.9  38485.06  8144.74  21.16
844.0  38543.94  8194.04  21.26
845.2  38626.85  8246.21  21.35
846.4  38724.98  8305.53  21.45
847.5  38888.12  8367.05  21.52
848.7  39002.30  8417.64  21.58
849.9  39141.74  8469.82  21.64
851.0  39173.78  8474.84  21.63
852.2  39245.07  8480.81  21.61
853.3  39202.67  8479.94  21.63
854.5  39188.19  8496.66  21.68
855.6  39170.88  8508.33  21.72
856.8  39193.80  8523.49  21.75
857.9  39192.81  8532.76  21.77
859.1  39326.60  8560.96  21.77
860.2  39300.24  8566.75  21.80
861.4  39344.78  8599.09  21.86
862.5  39384.29  8623.34  21.90
863.7  39467.66  8664.84  21.95
864.8  39454.45  8690.22  22.03
865.9  39398.65  8701.58  22.09
867.1  39448.45  8724.17  22.12
868.2  39441.53  8729.10  22.13
869.3  39465.67  8738.80  22.14
870.5  39438.89  8730.82  22.14
871.6  39473.54  8742.38  22.15
872.7  39541.37  8752.59  22.14
873.9  39548.50  8766.12  22.17
875.0  39546.05  8766.60  22.17
876.1  39583.15  8804.47  22.24
877.2  39616.79  8823.05  22.27
878.3  39601.98  8863.99  22.38
879.4  39662.11  8901.65  22.44
880.5  39702.60  8925.84  22.48
881.7  39698.10  8909.68  22.44
882.8  39775.46  8917.10  22.42
883.9  39785.32  8908.71  22.39
885.0  39766.55  8876.64  22.32
886.1  39735.85  8867.57  22.32
887.2  39664.66  8841.11  22.29
888.3  39567.00  8797.66  22.23
889.4  39535.02  8777.96  22.20
890.5  39459.91  8773.27  22.23
891.6  39428.33  8772.28  22.25
892.7  39429.01  8778.49  22.26
893.8  39492.50  8800.94  22.29
894.9  39505.51  8803.15  22.28
896.0  39527.49  8818.35  22.31
897.0  39487.40  8834.89  22.37
898.1  39490.45  8856.56  22.43
899.2  39536.22  8878.60  22.46
900.3  39503.73  8899.22  22.53
901.4  39454.09  8895.79  22.55
902.4  39461.49  8901.80  22.56
903.5  39418.10  8886.98  22.55
904.6  39431.18  8888.09  22.54
905.7  39454.64  8881.77  22.51
906.7  39397.52  8888.61  22.56
907.8  39514.80  8921.82  22.58
908.9  39443.33  8934.92  22.65
909.9  39411.21  8949.61  22.71
911.0  39357.50  8953.59  22.75
912.1  39280.99  8973.46  22.84
913.1  39233.48  8963.14  22.85
914.2  39173.92  8953.94  22.86
915.2  39170.79  8960.36  22.88
916.3  39094.50  8952.54  22.90
917.3  39076.47  8940.71  22.88
918.4  39031.30  8964.18  22.97
919.4  39022.48  8972.03  22.99
920.5  39026.74  8987.10  23.03
921.5  39018.63  9015.00  23.10
922.6  38959.72  9013.71  23.14
923.6  39026.05  9034.77  23.15
924.7  39022.50  9052.22  23.20
925.7  39030.84  9065.93  23.23
926.7  39009.32  9090.47  23.30
927.8  39032.57  9102.43  23.32
928.8  39142.62  9132.53  23.33
929.9  39330.10  9160.82  23.29
930.9  39447.46  9216.97  23.37
931.9  39602.61  9260.60  23.38
932.9  39864.58  9295.14  23.32
934.0  39909.81  9317.75  23.35
935.0  39942.68  9367.87  23.45
936.0  39929.50  9407.30  23.56
937.0  39883.94  9453.35  23.70
938.1  39848.52  9461.24  23.74
939.1  39753.89  9462.58  23.80
940.1  39867.76  9487.01  23.80
941.1  39995.43  9545.92  23.87
942.1  40229.45  9631.41  23.94
943.1  40393.76  9700.42  24.01
944.1  40552.56  9791.41  24.14
945.2  40570.32  9810.14  24.18
946.2  40685.67  9838.09  24.18
947.2  40740.25  9874.32  24.24
948.2  40874.09  9918.02  24.26
949.2  40954.06  9972.63  24.35
950.2  41026.00  10021.40  24.43
951.2  41012.16  10047.41  24.50
952.2  41170.94  10075.31  24.47
953.2  41257.13  10131.41  24.56
954.2  41395.95  10161.56  24.55
955.2  41401.94  10177.15  24.58
956.2  41391.82  10209.15  24.66
957.2  41524.97  10239.95  24.66
958.2  41486.28  10300.90  24.83
959.2  41625.00  10366.29  24.90
960.1  41647.94  10368.58  24.90
961.1  41725.78  10396.92  24.92
962.1  41752.50  10419.13  24.95
963.1  41720.60  10471.19  25.10
964.1  41837.60  10509.21  25.12
965.1  41932.95  10549.10  25.16
966.1  41961.44  10598.23  25.26
967.0  42058.17  10654.47  25.33
968.0  42094.69  10690.32  25.40
969.0  42115.20  10739.95  25.50
970.0  42092.26  10799.34  25.66
971.0  42266.18  10854.77  25.68
971.9  42275.33  10884.52  25.75
972.9  42388.85  10923.41  25.77
973.9  42492.13  10990.61  25.87
974.9  42580.28  11076.44  26.01
975.8  42630.52  11146.76  26.15
976.8  42806.43  11193.07  26.15
977.8  42848.34  11290.30  26.35
978.8  42868.95  11404.48  26.60
979.7  43050.58  11514.38  26.75
980.7  43264.32  11680.31  27.00
981.7  43347.07  11909.94  27.48
982.6  43545.07  12056.91  27.69
983.6  44003.55  12263.11  27.87
984.6  44377.46  12465.94  28.09
985.5  44900.28  12789.36  28.48
986.5  45688.01  13037.15  28.54
987.5  46285.78  13271.64  28.67
988.4  47161.40  13522.45  28.67
989.4  47812.76  13865.29  29.00
990.4  48753.98  13954.73  28.62
991.3  50274.64  14235.96  28.32
992.3  50864.45  14242.05  28.00
993.2  51610.85  14570.72  28.23
994.2  53891.66  14843.40  27.54
995.2  55394.96  14790.64  26.70
996.1  55625.12  14975.99  26.92
997.1  56348.70  14678.89  26.05
998.0  54473.40  14594.76  26.79
999.0  55283.87  14477.39  26.19
1000.0  55127.21  14325.58  25.99
1000.9  55875.58  14454.20  25.87
1001.9  56355.47  14514.58  25.76
1002.8  54776.67  14272.60  26.06
1003.8  57170.04  14023.39  24.53
1004.8  54763.20  13995.04  25.56
961.5  49984.08  12181.80  24.37
965.5  48959.90  11770.85  24.04
969.5  47367.08  11106.02  23.45
973.4  45664.01  10593.33  23.20
977.4  44063.24  10257.80  23.28
981.4  43484.76  10184.07  23.42
985.3  43466.28  10306.03  23.71
989.3  43739.41  10495.75  24.00
993.3  44088.36  10636.39  24.13
997.2  44246.85  10673.04  24.12
1001.2  44240.69  10668.02  24.11
1005.2  44147.66  10672.65  24.17
1009.1  44170.72  10707.10  24.24
1013.1  44298.35  10790.16  24.36
1017.1  44409.64  10868.28  24.47
1021.0  44418.65  10903.75  24.55
1025.0  44431.92  10943.01  24.63
1029.0  44310.95  10914.84  24.63
1032.9  44196.36  10887.41  24.63
1036.9  44214.81  10913.23  24.68
1040.9  44317.48  10990.36  24.80
1044.8  44471.57  11071.70  24.90
1048.8  44586.22  11138.78  24.98
1052.7  44660.98  11208.65  25.10
1056.7  44664.90  11251.18  25.19
1060.7  44652.74  11284.61  25.27
1064.6  44643.90  11323.90  25.36
1068.6  44545.19  11319.85  25.41
1072.5  44448.63  11317.40  25.46
1076.5  44390.31  11330.36  25.52
1080.4  44363.13  11354.31  25.59
1084.4  44428.99  11397.84  25.65
1088.3  44526.89  11457.06  25.73
1092.3  44515.11  11467.09  25.76
1096.2  44485.25  11474.65  25.79
1100.2  44489.30  11511.89  25.88
1104.1  44387.15  11497.32  25.90
1108.1  44344.78  11502.18  25.94
1112.0  44255.25  11487.68  25.96
1116.0  44078.91  11449.60  25.98
1119.9  43920.46  11421.48  26.00
1123.9  43980.05  11446.46  26.03
1127.8  43933.44  11427.84  26.01
1131.8  43891.20  11404.60  25.98
1135.7  43904.71  11407.45  25.98
1139.6  43873.24  11402.06  25.99
1143.6  43814.30  11388.15  25.99
1147.5  43764.96  11357.16  25.95
1151.4  43600.54  11278.97  25.87
1155.4  43567.43  11251.61  25.83
1159.3  43548.37  11248.57  25.83
1163.2  43379.84  11230.15  25.89
1167.2  43333.14  11251.30  25.96
1171.1  43320.14  11265.95  26.01
1175.0  43247.45  11249.92  26.01
1179.0  43203.54  11247.20  26.03
1182.9  43281.26  11284.00  26.07
1186.8  43262.79  11283.27  26.08
1190.7  43059.97  11229.71  26.08
1194.7  42822.73  11158.85  26.06
1198.6  42602.18  11098.40  26.05
1202.5  42456.57  11071.22  26.08
1206.4  42335.53  11054.32  26.11
1210.3  42230.32  11045.78  26.16
1214.2  42126.94  11054.90  26.24
1218.2  41984.08  11057.83  26.34
1222.1  41854.50  11049.85  26.40
1226.0  41760.57  11045.82  26.45
1229.9  41673.90  11046.26  26.51
1233.8  41576.55  11027.38  26.52
1237.7  41528.30  11024.22  26.55
1241.6  41457.25  11038.40  26.63
1245.5  41309.15  11027.66  26.70
1249.4  41175.26  11022.60  26.77
1253.3  41058.30  11018.95  26.84
1257.2  40978.33  11020.55  26.89
1261.1  40873.57  11002.07  26.92
1265.0  40757.89  10964.18  26.90
1268.9  40587.74  10919.41  26.90
1272.8  40626.75  10960.15  26.98
1276.7  40780.33  11054.81  27.11
1280.6  40842.56  11103.98  27.19
1284.5  40748.73  11093.05  27.22
1288.4  40697.88  11077.92  27.22
1292.3  40562.50  11028.42  27.19
1296.2  40411.46  10993.51  27.20
1300.1  40239.63  10951.24  27.22
1303.9  40009.73  10876.83  27.19
1307.8  39785.54  10802.14  27.15
1311.7  39554.21  10722.42  27.11
1315.6  39326.35  10641.79  27.06
1319.5  39086.11  10549.88  26.99
1323.3  38870.69  10471.48  26.94
1327.2  38681.53  10410.00  26.91
1331.1  38474.56  10329.87  26.85
1335.0  38203.08  10228.42  26.77
1338.8  38009.09  10137.71  26.67
1342.7  37876.27  10025.26  26.47
1346.5  37598.34  9825.25  26.13
1350.4  37400.07  9619.44  25.72
1354.3  37094.65  9408.35  25.36
1358.1  36731.71  9241.96  25.16
1362.0  36487.36  9168.55  25.13
1365.8  36370.47  9173.19  25.22
1369.7  36432.94  9222.59  25.31
1373.5  36366.82  9154.22  25.17
1377.4  36166.21  8970.81  24.80
1381.2  35990.96  8816.58  24.50
1385.1  35936.27  8770.39  24.41
1389.0  35813.45  8701.44  24.30
1392.8  35598.92  8546.30  24.01
