/*** Spectra Vista SIG Data ***/
name= GS.sig
comm= Averaged Ref/Tar of files: GD2S4,GD2S5,GD2S6
data=
346.4  509.60  215.52  42.29
347.9  549.06  213.35  38.86
349.5  608.40  220.48  36.24
351.1  655.20  222.56  33.97
352.6  708.40  228.76  32.29
354.2  752.68  241.08  32.03
355.7  818.30  248.07  30.32
357.3  873.81  258.91  29.63
358.8  891.23  256.30  28.76
360.4  967.31  263.82  27.27
361.9  1009.93  270.48  26.78
363.5  1059.53  283.93  26.80
365.1  1102.67  273.94  24.84
366.6  1156.59  288.86  24.98
368.2  1218.77  282.03  23.14
369.7  1306.00  278.62  21.33
371.3  1379.56  288.64  20.92
372.8  1457.48  293.27  20.12
374.4  1528.58  301.49  19.72
375.9  1575.56  303.42  19.26
377.4  1632.76  310.07  18.99
379.0  1683.54  309.76  18.40
380.5  1741.87  307.75  17.67
382.1  1805.51  300.43  16.64
383.6  1862.60  294.84  15.83
385.2  1949.75  303.42  15.56
386.7  2036.04  305.05  14.98
388.3  2135.96  318.86  14.93
389.8  2212.47  331.23  14.97
391.3  2314.34  338.84  14.64
392.9  2392.65  348.99  14.59
394.4  2474.90  365.00  14.75
395.9  2552.82  375.75  14.72
397.5  2664.75  398.37  14.95
399.0  2774.82  409.94  14.77
400.6  2852.64  397.14  13.92
402.1  2910.24  395.60  13.59
403.6  2965.71  397.19  13.39
405.1  3036.77  393.02  12.94
406.7  3133.76  405.44  12.94
408.2  3234.33  415.80  12.86
409.7  3330.88  426.35  12.80
411.3  3437.91  446.76  13.00
412.8  3528.93  464.52  13.16
414.3  3634.54  485.42  13.36
415.8  3740.00  497.50  13.30
417.4  3868.37  513.59  13.28
418.9  3954.39  533.83  13.50
420.4  4037.85  540.87  13.40
421.9  4106.74  553.37  13.47
423.5  4196.00  558.85  13.32
425.0  4263.51  566.37  13.28
426.5  4364.50  569.75  13.05
428.0  4488.82  576.75  12.85
429.5  4615.58  591.18  12.81
431.1  4756.23  608.88  12.80
432.6  4917.76  629.30  12.80
434.1  5064.68  643.59  12.71
435.6  5199.35  663.06  12.75
437.1  5333.25  682.50  12.80
438.6  5454.84  702.16  12.87
440.1  5584.70  725.60  12.99
441.6  5717.14  751.61  13.15
443.1  5852.25  772.20  13.19
444.7  5982.11  803.51  13.43
446.2  6104.50  838.49  13.74
447.7  6213.60  870.91  14.02
449.2  6315.84  905.04  14.33
450.7  6414.72  931.84  14.53
452.2  6543.45  965.47  14.75
453.7  6682.65  994.57  14.88
455.2  6842.54  1027.34  15.01
456.7  7029.44  1063.63  15.13
458.2  7231.16  1106.75  15.31
459.7  7428.75  1143.33  15.39
461.2  7633.63  1181.96  15.48
462.7  7815.14  1214.81  15.54
464.2  8000.76  1252.33  15.65
465.7  8191.53  1291.10  15.76
467.2  8352.58  1319.91  15.80
468.7  8552.00  1354.67  15.84
470.2  8711.17  1387.65  15.93
471.7  8854.00  1425.79  16.10
473.2  9050.37  1488.52  16.45
474.6  9252.88  1529.65  16.53
476.1  9378.88  1552.55  16.55
477.6  9464.51  1560.78  16.49
479.1  9567.20  1576.79  16.48
480.6  9658.16  1595.82  16.52
482.1  9797.74  1624.44  16.58
483.6  9963.22  1653.95  16.60
485.1  10140.49  1701.55  16.78
486.6  10356.19  1758.44  16.98
488.0  10562.50  1821.63  17.25
489.5  10784.97  1889.55  17.52
491.0  10998.86  1967.25  17.89
492.5  11224.98  2059.56  18.35
494.0  11462.99  2161.47  18.86
495.4  11663.85  2258.85  19.37
496.9  11870.36  2379.19  20.04
498.4  12074.30  2505.47  20.75
499.9  12278.41  2646.10  21.55
501.4  12476.75  2799.56  22.44
502.8  12664.51  2965.98  23.42
504.3  12846.60  3140.40  24.45
505.8  13033.73  3330.32  25.55
507.2  13172.68  3526.26  26.77
508.7  13289.99  3725.03  28.03
510.2  13412.81  3928.15  29.29
511.6  13494.72  4141.98  30.69
513.1  13630.43  4380.79  32.14
514.6  13795.53  4629.09  33.56
516.0  13946.28  4882.27  35.01
517.5  14135.83  5166.36  36.55
519.0  14365.19  5462.52  38.03
520.5  14579.60  5762.96  39.53
521.9  14828.55  6080.20  41.00
523.4  15093.49  6413.50  42.49
524.8  15349.14  6740.48  43.91
526.3  15633.70  7076.55  45.26
527.8  15915.89  7402.29  46.51
529.2  16178.21  7707.21  47.64
530.7  16455.24  8010.65  48.68
532.1  16698.15  8285.90  49.62
533.6  16994.07  8570.49  50.43
535.0  17295.55  8851.92  51.18
536.5  17581.25  9116.21  51.85
538.0  17895.84  9373.57  52.38
539.4  18160.64  9615.63  52.95
540.9  18488.86  9886.96  53.48
542.3  18738.28  10131.59  54.07
543.8  18940.29  10326.24  54.52
545.2  19020.35  10435.09  54.86
546.6  19057.19  10502.95  55.11
548.1  19121.11  10574.77  55.30
549.5  19166.91  10637.05  55.50
551.0  19217.70  10686.56  55.61
552.4  19311.21  10743.64  55.63
553.9  19371.38  10773.41  55.62
555.3  19461.20  10799.10  55.49
556.8  19596.88  10844.29  55.34
558.2  19743.75  10877.06  55.09
559.6  19902.71  10916.97  54.85
561.1  20117.50  10980.67  54.58
562.5  20332.52  11041.23  54.30
564.0  20611.34  11120.36  53.95
565.4  20865.50  11177.85  53.57
566.8  21177.73  11249.57  53.12
568.3  21463.05  11295.27  52.63
569.7  21776.78  11330.70  52.03
571.1  22080.65  11348.64  51.40
572.6  22373.82  11360.52  50.78
574.0  22675.95  11362.45  50.11
575.4  22958.44  11368.69  49.52
576.9  23231.09  11360.00  48.90
578.3  23477.03  11347.65  48.34
579.7  23721.74  11343.95  47.82
581.1  23920.49  11317.37  47.31
582.6  24132.47  11298.36  46.82
584.0  24305.80  11279.11  46.41
585.4  24549.94  11292.99  46.00
586.8  24845.17  11348.12  45.68
588.3  25201.80  11426.22  45.34
589.7  25517.70  11490.18  45.03
591.1  25735.55  11503.66  44.70
592.5  25883.00  11487.47  44.38
594.0  25998.42  11449.28  44.04
595.4  26057.54  11396.31  43.74
596.8  26115.38  11353.49  43.47
598.2  26174.55  11304.68  43.19
599.6  26202.06  11240.79  42.90
601.0  26298.70  11210.05  42.63
602.4  26372.18  11165.34  42.34
603.9  26501.77  11129.81  42.00
605.3  26625.41  11086.80  41.64
606.7  26749.80  11023.20  41.21
608.1  26941.18  10987.01  40.78
609.5  27151.69  10949.73  40.33
610.9  27387.74  10917.74  39.86
612.3  27589.20  10877.43  39.43
613.7  27871.80  10861.17  38.97
615.1  28061.64  10794.06  38.47
616.5  28235.16  10734.78  38.02
617.9  28534.12  10746.37  37.66
619.3  28808.15  10765.81  37.37
620.7  29149.14  10823.73  37.13
622.1  29527.66  10929.83  37.02
623.5  29951.83  11089.27  37.02
624.9  30436.35  11294.50  37.11
626.3  30757.12  11446.78  37.22
627.7  30461.43  11328.88  37.19
629.1  30188.34  11213.90  37.15
630.5  30083.03  11141.49  37.04
631.9  30076.12  11091.33  36.88
633.3  30078.24  11006.07  36.59
634.7  30183.54  10936.75  36.23
636.1  30268.81  10762.58  35.56
637.5  30374.19  10549.44  34.73
638.9  30520.15  10351.96  33.92
640.2  30643.60  10180.69  33.22
641.6  30733.56  10005.06  32.55
643.0  30777.50  9814.87  31.89
644.4  30869.16  9633.49  31.21
645.8  30855.38  9434.83  30.58
647.2  31023.20  9314.37  30.02
648.5  31185.15  9184.02  29.45
649.9  31117.13  9003.48  28.93
651.3  31099.80  8848.50  28.45
652.7  31059.00  8678.50  27.94
654.1  30961.56  8409.92  27.16
655.5  30829.51  8123.97  26.35
656.8  30685.81  7824.44  25.50
658.2  30861.69  7624.60  24.71
659.6  31181.89  7468.33  23.95
660.9  31452.29  7282.89  23.16
662.3  31767.46  7093.40  22.33
663.7  32102.70  6900.60  21.50
665.0  32334.98  6722.31  20.79
666.4  32575.38  6555.69  20.12
667.8  32873.84  6430.10  19.56
669.1  33084.01  6323.82  19.11
670.5  33327.47  6263.67  18.79
671.9  33513.12  6213.84  18.54
673.2  33742.50  6213.39  18.41
674.6  33950.66  6245.83  18.40
676.0  34219.05  6305.93  18.43
677.3  34494.18  6410.00  18.58
678.7  34767.13  6568.38  18.89
680.0  35103.31  6806.04  19.39
681.4  35420.13  7128.53  20.13
682.8  35763.00  7553.00  21.12
684.1  36073.44  8109.66  22.48
685.5  36318.59  8803.56  24.24
686.8  36607.26  9644.84  26.35
688.2  36844.31  10637.30  28.87
689.5  36898.97  11725.92  31.78
690.9  36950.15  12927.77  34.99
692.2  37008.15  14229.00  38.45
693.6  37024.93  15612.69  42.17
694.9  37005.38  17013.11  45.97
696.2  37027.13  18461.81  49.86
697.6  37047.86  19908.99  53.74
698.9  37049.76  21339.12  57.60
700.3  37075.62  22726.15  61.30
701.6  37124.24  24064.86  64.82
703.0  37178.40  25332.10  68.14
704.3  37172.20  26493.30  71.27
705.6  37157.22  27559.62  74.17
707.0  37168.46  28563.81  76.85
708.3  37076.04  29442.91  79.41
709.6  36967.81  30256.91  81.85
711.0  36867.73  30975.02  84.02
712.3  36770.31  31630.72  86.02
713.6  36755.88  32308.64  87.90
714.9  36684.64  32907.45  89.70
716.3  36701.44  33513.78  91.31
717.6  36734.04  34116.34  92.87
718.9  36680.73  34572.50  94.25
720.2  36496.25  34899.95  95.63
721.6  36394.28  35227.18  96.79
722.9  36240.12  35482.66  97.91
724.2  36067.30  35647.54  98.84
725.5  35963.70  35830.61  99.63
726.8  35833.96  35984.08  100.42
728.1  35810.80  36171.68  101.01
729.5  35779.10  36321.96  101.52
730.8  35779.13  36466.24  101.92
732.1  35704.25  36555.19  102.38
733.4  35690.92  36671.87  102.75
734.7  35685.89  36762.02  103.02
736.0  35729.66  36904.04  103.29
737.3  35717.44  36978.58  103.53
738.6  35830.21  37186.95  103.79
739.9  36014.88  37482.30  104.07
741.2  36161.58  37731.33  104.34
742.5  36363.94  38100.87  104.78
743.8  36737.66  38646.30  105.20
745.1  37309.08  39414.02  105.64
746.4  37926.98  40287.07  106.22
747.7  38536.99  41169.82  106.83
749.0  39118.92  42015.21  107.40
750.3  39493.02  42490.70  107.59
751.6  39440.80  42444.35  107.62
752.9  39084.79  42053.50  107.60
754.2  38731.25  41628.20  107.48
755.4  38386.91  41197.63  107.32
756.7  38244.09  41089.76  107.44
758.0  38261.36  41179.85  107.63
759.3  38489.95  41510.33  107.85
760.6  38786.44  41929.07  108.10
761.9  39062.28  42321.10  108.34
763.1  39197.21  42570.47  108.61
764.4  39371.54  42857.99  108.86
765.7  39490.75  43065.75  109.05
767.0  39577.16  43251.74  109.28
768.2  39644.64  43410.08  109.50
769.5  39697.68  43530.98  109.66
770.8  39836.32  43766.90  109.87
772.0  39856.44  43843.38  110.00
773.3  39898.95  43961.00  110.18
774.6  39978.84  44093.26  110.29
775.8  40054.79  44222.10  110.40
777.1  40085.96  44285.18  110.48
778.4  40059.57  44246.78  110.45
779.6  39999.54  44270.14  110.68
780.9  39948.00  44232.00  110.72
782.1  39837.20  44107.89  110.72
783.4  39802.88  44158.40  110.94
784.6  39851.08  44225.24  110.98
785.9  40095.40  44594.05  111.22
787.1  40531.58  45239.08  111.61
788.4  40834.19  45735.41  112.00
789.6  40796.10  45651.71  111.90
790.9  40479.11  45201.76  111.67
792.1  40128.24  44739.84  111.49
793.4  39739.41  44309.86  111.50
794.6  39507.48  44022.80  111.43
795.8  39314.07  43768.31  111.33
797.1  39097.95  43514.35  111.30
798.3  38940.83  43330.10  111.27
799.5  38821.14  43250.18  111.41
800.8  38733.05  43139.11  111.38
802.0  38591.76  43030.40  111.50
803.2  38469.72  42890.28  111.49
804.5  38377.94  42797.93  111.52
805.7  38264.87  42687.88  111.56
806.9  38181.95  42574.22  111.50
808.1  38074.65  42483.85  111.58
809.4  38033.33  42422.60  111.54
810.6  37951.55  42346.85  111.58
811.8  37942.61  42336.78  111.58
813.0  37965.80  42370.57  111.60
814.2  37975.49  42411.71  111.68
815.4  38039.93  42550.45  111.86
816.6  38032.65  42586.97  111.97
817.9  38050.16  42625.92  112.03
819.1  37997.24  42549.91  111.98
820.3  37865.18  42392.72  111.96
821.5  37787.61  42271.07  111.86
822.7  37714.41  42173.82  111.82
823.9  37704.87  42152.67  111.80
825.1  37688.07  42118.57  111.76
826.3  37716.38  42096.86  111.61
827.5  37726.06  42093.18  111.58
828.7  37779.60  42081.20  111.39
829.9  37796.29  42071.57  111.31
831.0  37849.02  42085.61  111.19
832.2  37913.75  42124.84  111.11
833.4  37950.44  42153.20  111.07
834.6  37978.13  42196.87  111.11
835.8  38031.53  42252.53  111.10
837.0  38073.26  42344.94  111.22
838.1  38178.69  42474.30  111.25
839.3  38239.24  42565.42  111.31
840.5  38296.24  42674.08  111.43
841.7  38381.58  42822.14  111.57
842.9  38485.06  42979.29  111.68
844.0  38543.94  43092.37  111.80
845.2  38626.85  43262.22  112.00
846.4  38724.98  43404.43  112.08
847.5  38888.12  43643.12  112.23
848.7  39002.30  43818.37  112.35
849.9  39141.74  43989.11  112.38
851.0  39173.78  44076.33  112.51
852.2  39245.07  44125.92  112.44
853.3  39202.67  44097.31  112.49
854.5  39188.19  44087.96  112.50
855.6  39170.88  44087.34  112.55
856.8  39193.80  44100.37  112.52
857.9  39192.81  44123.34  112.58
859.1  39326.60  44230.80  112.47
860.2  39300.24  44244.69  112.58
861.4  39344.78  44275.35  112.53
862.5  39384.29  44304.91  112.49
863.7  39467.66  44394.83  112.48
864.8  39454.45  44379.88  112.48
865.9  39398.65  44346.82  112.56
867.1  39448.45  44376.37  112.49
868.2  39441.53  44340.73  112.42
869.3  39465.67  44361.84  112.41
870.5  39438.89  44276.36  112.27
871.6  39473.54  44268.33  112.15
872.7  39541.37  44308.15  112.06
873.9  39548.50  44296.71  112.01
875.0  39546.05  44257.89  111.91
876.1  39583.15  44245.73  111.78
877.2  39616.79  44243.18  111.68
878.3  39601.98  44211.06  111.64
879.4  39662.11  44253.91  111.58
880.5  39702.60  44267.64  111.50
881.7  39698.10  44196.32  111.33
882.8  39775.46  44197.83  111.12
883.9  39785.32  44196.19  111.09
885.0  39766.55  44069.71  110.82
886.1  39735.85  43973.98  110.67
887.2  39664.66  43792.47  110.41
888.3  39567.00  43616.62  110.23
889.4  39535.02  43475.92  109.97
890.5  39459.91  43347.07  109.85
891.6  39428.33  43244.84  109.68
892.7  39429.01  43162.61  109.47
893.8  39492.50  43159.81  109.29
894.9  39505.51  43117.95  109.14
896.0  39527.49  43033.30  108.87
897.0  39487.40  43014.22  108.93
898.1  39490.45  43001.12  108.89
899.2  39536.22  42954.66  108.65
900.3  39503.73  42821.53  108.40
901.4  39454.09  42712.86  108.26
902.4  39461.49  42665.51  108.12
903.5  39418.10  42546.06  107.94
904.6  39431.18  42492.74  107.76
905.7  39454.64  42438.69  107.56
906.7  39397.52  42377.94  107.57
907.8  39514.80  42365.42  107.21
908.9  39443.33  42245.21  107.10
909.9  39411.21  42167.49  106.99
911.0  39357.50  42025.14  106.78
912.1  39280.99  41900.38  106.67
913.1  39233.48  41782.52  106.50
914.2  39173.92  41586.30  106.16
915.2  39170.79  41471.82  105.87
916.3  39094.50  41379.20  105.84
917.3  39076.47  41278.82  105.64
918.4  39031.30  41113.78  105.34
919.4  39022.48  40972.92  105.00
920.5  39026.74  40865.48  104.71
921.5  39018.63  40750.01  104.44
922.6  38959.72  40571.19  104.14
923.6  39026.05  40480.53  103.73
924.7  39022.50  40330.42  103.35
925.7  39030.84  40196.48  102.99
926.7  39009.32  40095.35  102.78
927.8  39032.57  39996.74  102.47
928.8  39142.62  39948.30  102.06
929.9  39330.10  39895.35  101.44
930.9  39447.46  39873.72  101.08
931.9  39602.61  39871.70  100.68
932.9  39864.58  39977.03  100.28
934.0  39909.81  39816.06  99.77
935.0  39942.68  39695.24  99.38
936.0  39929.50  39491.23  98.90
937.0  39883.94  39285.22  98.50
938.1  39848.52  39060.15  98.02
939.1  39753.89  38864.59  97.76
940.1  39867.76  38787.30  97.29
941.1  39995.43  38748.78  96.88
942.1  40229.45  38775.58  96.39
943.1  40393.76  38761.95  95.96
944.1  40552.56  38769.65  95.60
945.2  40570.32  38604.30  95.15
946.2  40685.67  38495.72  94.62
947.2  40740.25  38297.09  94.00
948.2  40874.09  38231.64  93.54
949.2  40954.06  38062.65  92.94
950.2  41026.00  37897.53  92.37
951.2  41012.16  37703.96  91.93
952.2  41170.94  37553.59  91.21
953.2  41257.13  37466.60  90.81
954.2  41395.95  37325.70  90.17
955.2  41401.94  37136.28  89.70
956.2  41391.82  36930.15  89.22
957.2  41524.97  36825.94  88.68
958.2  41486.28  36778.85  88.65
959.2  41625.00  36679.95  88.12
960.1  41647.94  36661.08  88.03
961.1  41725.78  36625.38  87.78
962.1  41752.50  36551.25  87.54
963.1  41720.60  36551.89  87.61
964.1  41837.60  36595.45  87.47
965.1  41932.95  36664.15  87.44
966.1  41961.44  36630.20  87.29
967.0  42058.17  36717.45  87.30
968.0  42094.69  36676.08  87.13
969.0  42115.20  36743.80  87.25
970.0  42092.26  36824.29  87.48
971.0  42266.18  36896.51  87.30
971.9  42275.33  36898.41  87.28
972.9  42388.85  37012.39  87.32
973.9  42492.13  37074.70  87.25
974.9  42580.28  37193.79  87.35
975.8  42630.52  37351.37  87.62
976.8  42806.43  37426.88  87.43
977.8  42848.34  37559.99  87.66
978.8  42868.95  37682.00  87.90
979.7  43050.58  37929.00  88.10
980.7  43264.32  38081.62  88.02
981.7  43347.07  38419.62  88.63
982.6  43545.07  38664.05  88.79
983.6  44003.55  39197.64  89.08
984.6  44377.46  39627.76  89.30
985.5  44900.28  40247.52  89.64
986.5  45688.01  41103.40  89.97
987.5  46285.78  42100.20  90.96
988.4  47161.40  43035.67  91.25
989.4  47812.76  44026.03  92.08
990.4  48753.98  45056.07  92.42
991.3  50274.64  46695.77  92.88
992.3  50864.45  47212.64  92.82
993.2  51610.85  49142.51  95.22
994.2  53891.66  49927.80  92.64
995.2  55394.96  50918.60  91.92
996.1  55625.12  51651.90  92.86
997.1  56348.70  52005.83  92.29
998.0  54473.40  52075.20  95.60
999.0  55283.87  52152.33  94.34
1000.0  55127.21  51627.07  93.65
1000.9  55875.58  52596.50  94.13
1001.9  56355.47  52301.12  92.81
1002.8  54776.67  51849.67  94.66
1003.8  57170.04  51933.09  90.84
1004.8  54763.20  52785.64  96.39
961.5  49984.08  38704.63  77.43
965.5  48959.90  38241.04  78.11
969.5  47367.08  37227.73  78.59
973.4  45664.01  36227.68  79.34
977.4  44063.24  35567.58  80.72
981.4  43484.76  35507.14  81.65
985.3  43466.28  35747.68  82.24
989.3  43739.41  36195.08  82.75
993.3  44088.36  36638.27  83.10
997.2  44246.85  36919.96  83.44
1001.2  44240.69  37187.63  84.06
1005.2  44147.66  37500.64  84.94
1009.1  44170.72  37956.95  85.93
1013.1  44298.35  38503.67  86.92
1017.1  44409.64  39066.07  87.97
1021.0  44418.65  39527.48  88.99
1025.0  44431.92  39953.90  89.92
1029.0  44310.95  40273.16  90.89
1032.9  44196.36  40586.17  91.83
1036.9  44214.81  41002.27  92.73
1040.9  44317.48  41509.84  93.66
1044.8  44471.57  42074.45  94.61
1048.8  44586.22  42573.94  95.49
1052.7  44660.98  42980.97  96.24
1056.7  44664.90  43278.66  96.90
1060.7  44652.74  43501.79  97.42
1064.6  44643.90  43656.33  97.79
1068.6  44545.19  43675.95  98.05
1072.5  44448.63  43644.08  98.19
1076.5  44390.31  43575.03  98.16
1080.4  44363.13  43484.95  98.02
1084.4  44428.99  43445.66  97.79
1088.3  44526.89  43351.73  97.36
1092.3  44515.11  43103.33  96.83
1096.2  44485.25  42820.85  96.26
1100.2  44489.30  42562.84  95.67
1104.1  44387.15  42169.57  95.00
1108.1  44344.78  41822.57  94.31
1112.0  44255.25  41413.04  93.58
1116.0  44078.91  40873.86  92.73
1119.9  43920.46  40289.37  91.73
1123.9  43980.05  39768.29  90.42
1127.8  43933.44  38936.32  88.63
1131.8  43891.20  37856.16  86.25
1135.7  43904.71  36619.53  83.41
1139.6  43873.24  35247.45  80.34
1143.6  43814.30  33915.77  77.41
1147.5  43764.96  32763.77  74.86
1151.4  43600.54  31783.48  72.90
1155.4  43567.43  31174.13  71.55
1159.3  43548.37  30781.16  70.68
1163.2  43379.84  30412.87  70.11
1167.2  43333.14  30236.32  69.78
1171.1  43320.14  30125.89  69.54
1175.0  43247.45  29985.50  69.33
1179.0  43203.54  29869.11  69.14
1182.9  43281.26  29823.33  68.91
1186.8  43262.79  29717.76  68.69
1190.7  43059.97  29497.99  68.50
1194.7  42822.73  29282.14  68.38
1198.6  42602.18  29118.71  68.35
1202.5  42456.57  29020.51  68.35
1206.4  42335.53  28981.19  68.46
1210.3  42230.32  28987.22  68.64
1214.2  42126.94  29017.56  68.88
1218.2  41984.08  29047.68  69.19
1222.1  41854.50  29100.56  69.53
1226.0  41760.57  29177.02  69.87
1229.9  41673.90  29253.88  70.20
1233.8  41576.55  29312.42  70.50
1237.7  41528.30  29383.87  70.76
1241.6  41457.25  29437.08  71.01
1245.5  41309.15  29439.64  71.27
1249.4  41175.26  29439.85  71.50
1253.3  41058.30  29430.71  71.68
1257.2  40978.33  29433.92  71.83
1261.1  40873.57  29399.11  71.93
1265.0  40757.89  29324.40  71.95
1268.9  40587.74  29182.51  71.90
1272.8  40626.75  29184.00  71.83
1276.7  40780.33  29246.44  71.72
1280.6  40842.56  29205.60  71.51
1284.5  40748.73  29015.91  71.21
1288.4  40697.88  28821.52  70.82
1292.3  40562.50  28530.33  70.34
1296.2  40411.46  28187.60  69.75
1300.1  40239.63  27792.29  69.07
1303.9  40009.73  27303.07  68.24
1307.8  39785.54  26782.38  67.32
1311.7  39554.21  26220.06  66.29
1315.6  39326.35  25623.50  65.16
1319.5  39086.11  24996.99  63.95
1323.3  38870.69  24365.45  62.68
