/*** Spectra Vista SIG Data ***/
name= GS.sig
comm= SIG file reprocesed for matching/overlap;Averaged Ref/Tar of files: GS1,GS2,GS3
data=
346.4  468.20  197.47  42.18
347.9  473.76  189.30  39.96
349.5  521.04  201.76  38.72
351.1  558.48  195.52  35.01
352.6  585.06  207.67  35.50
354.2  625.05  212.72  34.03
355.7  673.50  220.01  32.67
357.3  724.71  232.32  32.06
358.8  751.43  235.33  31.32
360.4  798.47  248.57  31.13
361.9  821.87  241.46  29.38
363.5  851.78  243.53  28.59
365.1  887.68  246.19  27.73
366.6  918.37  252.03  27.44
368.2  973.68  246.22  25.29
369.7  1008.89  243.79  24.16
371.3  1073.36  261.20  24.33
372.8  1148.72  260.07  22.64
374.4  1191.49  259.22  21.76
375.9  1247.87  263.70  21.13
377.4  1278.23  265.62  20.78
379.0  1330.29  267.33  20.10
380.5  1360.26  264.67  19.46
382.1  1412.49  260.04  18.41
383.6  1460.03  257.04  17.61
385.2  1529.00  263.08  17.21
386.7  1608.26  263.53  16.39
388.3  1679.42  281.72  16.77
389.8  1759.55  281.82  16.02
391.3  1843.67  299.86  16.26
392.9  1897.62  312.00  16.44
394.4  1955.58  316.53  16.19
395.9  2019.02  356.91  17.68
397.5  2131.80  361.76  16.97
399.0  2240.25  364.62  16.28
400.6  2303.62  366.01  15.89
402.1  2342.64  350.88  14.98
403.6  2375.92  350.84  14.77
405.1  2451.81  354.18  14.45
406.7  2542.40  366.61  14.42
408.2  2650.73  382.39  14.43
409.7  2746.24  389.01  14.17
411.3  2843.51  405.45  14.26
412.8  2936.43  428.18  14.58
414.3  3034.90  445.44  14.68
415.8  3152.50  459.17  14.57
417.4  3253.58  471.42  14.49
418.9  3339.60  490.82  14.70
420.4  3424.70  505.15  14.75
421.9  3487.22  507.39  14.55
423.5  3546.87  512.15  14.44
425.0  3613.98  513.93  14.22
426.5  3695.85  520.30  14.08
428.0  3801.23  526.13  13.84
429.5  3926.30  536.55  13.67
431.1  4071.24  550.19  13.51
432.6  4225.66  564.57  13.36
434.1  4373.60  584.56  13.37
435.6  4514.36  601.79  13.33
437.1  4642.95  616.85  13.29
438.6  4769.06  637.97  13.38
440.1  4906.69  654.23  13.33
441.6  5042.30  676.84  13.42
443.1  5179.95  702.68  13.57
444.7  5318.34  740.49  13.92
446.2  5433.01  773.94  14.25
447.7  5551.25  795.40  14.33
449.2  5676.48  828.72  14.60
450.7  5788.64  847.25  14.64
452.2  5916.62  873.12  14.76
453.7  6028.91  902.07  14.96
455.2  6201.73  935.80  15.09
456.7  6390.56  969.76  15.17
458.2  6607.30  1003.06  15.18
459.7  6823.25  1033.67  15.15
461.2  7031.76  1068.41  15.19
462.7  7219.07  1100.85  15.25
464.2  7396.86  1130.33  15.28
465.7  7583.22  1157.17  15.26
467.2  7742.35  1185.16  15.31
468.7  7912.00  1222.00  15.44
470.2  8015.91  1250.61  15.60
471.7  8177.13  1289.63  15.77
473.2  8446.52  1317.88  15.60
474.6  8688.33  1339.91  15.42
476.1  8747.12  1350.44  15.44
477.6  8779.39  1367.64  15.58
479.1  8829.54  1391.29  15.76
480.6  8916.06  1403.96  15.75
482.1  9046.91  1428.80  15.79
483.6  9204.08  1458.16  15.84
485.1  9394.00  1494.65  15.91
486.6  9626.34  1545.36  16.05
488.0  9867.00  1603.88  16.25
489.5  10130.90  1666.14  16.45
491.0  10387.73  1737.20  16.72
492.5  10649.88  1820.88  17.10
494.0  10928.34  1914.59  17.52
495.4  11158.95  2002.55  17.95
496.9  11406.10  2109.21  18.49
498.4  11649.48  2228.46  19.13
499.9  11878.23  2354.12  19.82
501.4  12101.58  2499.43  20.65
502.8  12308.24  2653.43  21.56
504.3  12497.40  2814.60  22.52
505.8  12681.02  2993.44  23.61
507.2  12808.72  3174.62  24.78
508.7  12896.48  3364.46  26.09
510.2  12964.78  3556.67  27.43
511.6  13008.39  3754.30  28.86
513.1  13093.74  3975.62  30.36
514.6  13195.49  4200.93  31.84
516.0  13281.41  4444.96  33.47
517.5  13429.99  4710.21  35.07
519.0  13603.01  4995.34  36.72
520.5  13772.72  5284.63  38.37
521.9  13993.28  5601.83  40.03
523.4  14243.35  5919.05  41.56
524.8  14493.24  6243.32  43.08
526.3  14778.04  6564.84  44.42
527.8  15074.01  6885.23  45.68
529.2  15339.71  7177.24  46.79
530.7  15629.94  7474.10  47.82
532.1  15903.48  7745.03  48.70
533.6  16214.37  8018.48  49.45
535.0  16534.98  8288.86  50.13
536.5  16856.03  8541.48  50.67
538.0  17178.24  8797.65  51.21
539.4  17501.02  9033.99  51.62
540.9  17879.62  9295.70  51.99
542.3  18237.67  9519.73  52.20
543.8  18504.51  9700.81  52.42
545.2  18600.74  9807.32  52.73
546.6  18637.00  9888.72  53.06
548.1  18690.38  9962.51  53.30
549.5  18745.60  10025.36  53.48
551.0  18790.92  10072.57  53.60
552.4  18868.34  10127.63  53.68
553.9  18922.09  10163.02  53.71
555.3  18999.63  10186.02  53.61
556.8  19143.87  10236.82  53.47
558.2  19276.31  10260.00  53.23
559.6  19441.66  10294.53  52.95
561.1  19660.88  10341.50  52.60
562.5  19883.82  10380.46  52.21
564.0  20177.05  10453.08  51.81
565.4  20444.07  10482.81  51.28
566.8  20774.24  10533.65  50.71
568.3  21077.79  10552.53  50.06
569.7  21403.31  10566.88  49.37
571.1  21706.83  10558.41  48.64
572.6  22010.94  10544.58  47.91
574.0  22299.75  10524.80  47.20
575.4  22570.31  10499.07  46.52
576.9  22820.49  10465.45  45.86
578.3  23040.88  10430.06  45.27
579.7  23243.15  10399.13  44.74
581.1  23410.31  10351.11  44.22
582.6  23592.46  10314.08  43.72
584.0  23735.52  10271.40  43.27
585.4  23971.18  10252.25  42.77
586.8  24286.87  10294.34  42.39
588.3  24642.54  10328.76  41.91
589.7  24935.04  10363.86  41.56
591.1  25126.37  10361.44  41.24
592.5  25213.30  10325.30  40.95
594.0  25248.06  10274.90  40.70
595.4  25246.58  10219.11  40.48
596.8  25248.80  10181.60  40.33
598.2  25256.70  10128.00  40.10
599.6  25254.00  10069.17  39.87
601.0  25321.45  10044.24  39.67
602.4  25392.58  10008.65  39.42
603.9  25508.50  9986.34  39.15
605.3  25652.08  9952.49  38.80
606.7  25770.60  9902.40  38.43
608.1  26003.60  9880.01  37.99
609.5  26249.20  9850.87  37.53
610.9  26543.12  9837.02  37.06
612.3  26820.62  9808.39  36.57
613.7  27191.20  9804.47  36.06
615.1  27470.34  9752.94  35.50
616.5  27748.85  9712.39  35.00
617.9  28163.94  9732.52  34.56
619.3  28559.37  9764.82  34.19
620.7  29021.55  9833.74  33.88
622.1  29524.34  9827.04  33.28
623.5  30070.32  9792.85  32.57
624.9  30686.25  9823.27  32.01
626.3  31117.56  9785.92  31.45
627.7  30854.43  9562.35  30.99
629.1  30617.27  9472.93  30.94
630.5  30534.25  9493.81  31.09
631.9  30583.88  9563.21  31.27
633.3  30636.73  9589.13  31.30
634.7  30802.72  9621.97  31.24
636.1  30887.16  9556.47  30.94
637.5  30991.21  9481.73  30.59
638.9  31137.59  9403.10  30.20
640.2  31275.86  9288.46  29.70
641.6  31334.94  9149.40  29.20
643.0  31307.82  8960.99  28.62
644.4  31297.86  8772.09  28.03
645.8  31223.60  8570.81  27.45
647.2  31327.01  8418.58  26.87
648.5  31378.61  8269.48  26.35
649.9  31215.99  8088.34  25.91
651.3  31061.55  7956.85  25.62
652.7  30880.50  7825.95  25.34
654.1  30705.72  7552.20  24.60
655.5  30448.41  7270.79  23.88
656.8  30219.54  6985.01  23.11
658.2  30347.48  6797.60  22.40
659.6  30667.01  6647.13  21.68
660.9  30915.41  6491.89  21.00
662.3  31175.28  6332.83  20.31
663.7  31418.10  6160.70  19.61
665.0  31622.76  5995.52  18.96
666.4  31821.65  5850.15  18.38
667.8  32088.83  5738.93  17.88
669.1  32304.87  5635.34  17.44
670.5  32567.66  5589.64  17.16
671.9  32723.64  5545.40  16.95
673.2  32957.22  5538.54  16.81
674.6  33165.65  5569.05  16.79
676.0  33416.99  5635.13  16.86
677.3  33670.84  5752.87  17.09
678.7  33959.63  5898.30  17.37
680.0  34360.72  6142.11  17.88
681.4  34770.40  6449.97  18.55
682.8  35166.95  6847.75  19.47
684.1  35575.02  7377.24  20.74
685.5  35948.61  8006.73  22.27
686.8  36307.14  8796.14  24.23
688.2  36654.12  9708.03  26.49
689.5  36792.82  10722.50  29.14
690.9  36894.22  11865.85  32.16
692.2  37000.50  13114.65  35.44
693.6  37086.31  14463.52  39.00
694.9  37102.94  15832.06  42.67
696.2  37172.03  17243.96  46.39
697.6  37238.58  18689.83  50.19
698.9  37321.68  20120.32  53.91
700.3  37412.04  21564.70  57.64
701.6  37521.51  22955.04  61.18
703.0  37648.39  24310.14  64.57
704.3  37727.46  25546.68  67.71
705.6  37779.39  26718.90  70.72
707.0  37853.11  27835.96  73.54
708.3  37804.36  28795.20  76.17
709.6  37779.31  29713.04  78.65
711.0  37700.05  30516.47  80.95
712.3  37603.29  31261.80  83.14
713.6  37599.66  32049.92  85.24
714.9  37564.50  32728.71  87.13
716.3  37606.65  33449.04  88.94
717.6  37655.10  34154.47  90.70
718.9  37643.31  34709.30  92.21
720.2  37519.65  35107.64  93.57
721.6  37437.79  35502.26  94.83
722.9  37295.06  35853.02  96.13
724.2  37099.21  36070.21  97.23
725.5  36957.59  36340.95  98.33
726.8  36833.83  36541.14  99.21
728.1  36764.75  36761.02  99.99
729.5  36694.32  36951.46  100.70
730.8  36660.60  37129.62  101.28
732.1  36590.42  37254.37  101.81
733.4  36549.03  37395.48  102.32
734.7  36509.02  37509.43  102.74
736.0  36510.50  37659.12  103.15
737.3  36452.29  37743.60  103.54
738.6  36538.42  37976.23  103.94
739.9  36706.85  38303.51  104.35
741.2  36841.35  38546.69  104.63
742.5  37078.82  38925.59  104.98
743.8  37494.19  39506.78  105.37
745.1  38118.44  40274.72  105.66
746.4  38876.11  41143.83  105.83
747.7  39639.96  42014.65  105.99
749.0  40400.48  42855.65  106.08
750.3  40850.46  43306.11  106.01
751.6  40764.46  43249.96  106.10
752.9  40356.61  42876.57  106.24
754.2  39863.99  42450.63  106.49
755.4  39350.05  41975.06  106.67
756.7  39155.03  41864.26  106.92
758.0  39142.09  41929.54  107.12
759.3  39351.46  42249.64  107.36
760.6  39645.76  42686.75  107.67
761.9  39928.94  43086.97  107.91
763.1  40078.15  43312.48  108.07
764.4  40287.45  43580.69  108.17
765.7  40433.25  43785.08  108.29
767.0  40515.07  43933.16  108.44
768.2  40595.52  44092.16  108.61
769.5  40644.33  44195.11  108.74
770.8  40787.04  44412.33  108.89
772.0  40799.41  44464.94  108.98
773.3  40833.29  44577.88  109.17
774.6  40907.98  44713.91  109.30
775.8  40955.53  44811.38  109.41
777.1  40964.33  44869.50  109.53
778.4  40867.87  44814.01  109.66
779.6  40816.98  44820.34  109.81
780.9  40688.00  44773.33  110.04
782.1  40484.72  44627.82  110.23
783.4  40464.32  44654.83  110.36
784.6  40463.12  44707.45  110.49
785.9  40670.74  45075.73  110.83
787.1  41171.80  45709.83  111.02
788.4  41528.97  46164.11  111.16
789.6  41482.13  46032.28  110.97
790.9  41134.16  45565.68  110.77
792.1  40655.28  45050.53  110.81
793.4  40180.32  44603.80  111.01
794.6  39846.60  44283.42  111.13
795.8  39587.54  44021.69  111.20
797.1  39290.10  43762.93  111.38
798.3  39054.26  43585.71  111.60
799.5  38943.25  43489.87  111.67
800.8  38778.22  43372.52  111.85
802.0  38618.88  43244.35  111.98
803.2  38465.20  43078.61  111.99
804.5  38332.71  42983.35  112.13
805.7  38219.65  42856.72  112.13
806.9  38073.35  42725.05  112.22
808.1  37984.05  42651.46  112.29
809.4  37906.28  42613.17  112.42
810.6  37824.15  42556.15  112.51
811.8  37796.29  42547.11  112.57
813.0  37827.58  42573.30  112.55
814.2  37840.50  42656.87  112.73
815.4  37955.24  42766.88  112.68
816.6  38027.91  42817.53  112.60
817.9  38102.35  42858.43  112.48
819.1  38072.96  42761.29  112.31
820.3  37949.69  42588.35  112.22
821.5  37894.61  42481.98  112.11
822.7  37866.54  42401.24  111.98
823.9  37906.28  42384.60  111.81
825.1  37943.15  42347.84  111.61
826.3  38020.73  42327.02  111.33
827.5  38108.05  42328.13  111.07
828.7  38176.32  42322.88  110.86
829.9  38262.68  42313.91  110.59
831.0  38386.63  42349.05  110.32
832.2  38533.16  42416.06  110.08
833.4  38634.36  42461.82  109.91
834.6  38746.88  42531.25  109.77
835.8  38872.58  42600.60  109.59
837.0  39026.76  42705.68  109.43
838.1  39200.00  42890.20  109.41
839.3  39334.99  42977.75  109.26
840.5  39499.16  43119.42  109.17
841.7  39675.29  43311.65  109.17
842.9  39834.34  43489.93  109.18
844.0  40002.80  43635.36  109.08
845.2  40188.33  43821.27  109.04
846.4  40315.24  43943.47  109.00
847.5  40575.08  44196.29  108.92
848.7  40794.29  44396.98  108.83
849.9  41043.27  44563.77  108.58
851.0  41176.72  44615.88  108.35
852.2  41283.01  44667.80  108.20
853.3  41336.03  44646.00  108.01
854.5  41385.60  44652.78  107.89
855.6  41408.01  44644.11  107.82
856.8  41491.09  44687.86  107.70
857.9  41535.42  44707.97  107.64
859.1  41657.80  44832.20  107.62
860.2  41711.76  44830.83  107.48
861.4  41789.90  44873.90  107.38
862.5  41857.52  44937.74  107.36
863.7  41978.22  45008.82  107.22
864.8  42001.40  45029.37  107.21
865.9  42003.19  44999.08  107.13
867.1  42077.89  44990.36  106.92
868.2  42118.25  44980.36  106.80
869.3  42153.63  44961.52  106.66
870.5  42092.46  44881.94  106.63
871.6  42122.53  44887.64  106.56
872.7  42223.14  44941.75  106.44
873.9  42262.83  44939.78  106.33
875.0  42247.20  44854.77  106.17
876.1  42225.11  44825.98  106.16
877.2  42279.84  44822.79  106.01
878.3  42302.12  44728.79  105.74
879.4  42284.06  44735.54  105.80
880.5  42343.92  44706.48  105.58
881.7  42326.05  44655.43  105.50
882.8  42351.34  44625.70  105.37
883.9  42430.09  44596.11  105.10
885.0  42357.32  44466.01  104.98
886.1  42357.47  44367.67  104.75
887.2  42241.92  44169.63  104.56
888.3  42147.85  43964.33  104.31
889.4  42045.32  43781.84  104.13
890.5  41945.29  43641.24  104.04
891.6  41864.40  43542.59  104.01
892.7  41844.69  43449.11  103.83
893.8  41881.85  43456.58  103.76
894.9  41879.31  43376.63  103.58
896.0  41812.69  43293.33  103.54
897.0  41850.92  43260.42  103.37
898.1  41821.61  43202.35  103.30
899.2  41852.54  43153.91  103.11
900.3  41747.94  43018.72  103.04
901.4  41622.41  42879.41  103.02
902.4  41658.53  42854.91  102.87
903.5  41604.82  42714.03  102.67
904.6  41550.72  42677.33  102.71
905.7  41565.54  42633.79  102.57
906.7  41536.49  42541.74  102.42
907.8  41558.34  42488.10  102.24
908.9  41493.73  42332.67  102.02
909.9  41451.58  42232.58  101.88
911.0  41358.23  42119.94  101.84
912.1  41297.17  41962.67  101.61
913.1  41189.72  41835.21  101.57
914.2  41099.85  41619.39  101.26
915.2  41068.89  41521.77  101.10
916.3  41034.15  41409.35  100.91
917.3  40975.74  41288.92  100.76
918.4  40862.80  41086.65  100.55
919.4  40836.29  40901.19  100.16
920.5  40782.84  40755.29  99.93
921.5  40833.45  40652.66  99.56
922.6  40729.18  40427.25  99.26
923.6  40739.49  40338.62  99.02
924.7  40774.75  40212.17  98.62
925.7  40746.72  40022.72  98.22
926.7  40808.40  39854.01  97.66
927.8  40839.01  39741.85  97.31
928.8  40966.59  39646.17  96.78
929.9  41048.46  39571.27  96.40
930.9  41217.18  39538.81  95.93
931.9  41378.61  39525.72  95.52
932.9  41679.25  39635.81  95.10
934.0  41702.58  39437.20  94.57
935.0  41757.18  39290.71  94.09
936.0  41670.71  39041.12  93.69
937.0  41632.50  38817.35  93.24
938.1  41580.55  38566.42  92.75
939.1  41508.45  38355.86  92.40
940.1  41591.64  38192.44  91.83
941.1  41779.29  38186.96  91.40
942.1  41991.60  38171.53  90.90
943.1  42156.63  38081.32  90.33
944.1  42391.18  38088.20  89.85
945.2  42445.20  37896.88  89.28
946.2  42493.04  37739.35  88.81
947.2  42572.63  37548.08  88.20
948.2  42750.54  37415.79  87.52
949.2  42846.38  37243.10  86.92
950.2  42880.60  37017.07  86.33
951.2  42968.52  36809.08  85.67
952.2  43001.40  36580.24  85.07
953.2  43164.71  36441.33  84.42
954.2  43310.48  36290.55  83.79
955.2  43368.34  36106.99  83.26
956.2  43301.73  35912.57  82.94
957.2  43392.87  35740.31  82.36
958.2  43492.10  35626.45  81.91
959.2  43506.45  35520.00  81.64
960.1  43588.22  35492.37  81.43
961.1  43692.83  35406.86  81.04
962.1  43658.44  35357.81  80.99
963.1  43782.00  35378.29  80.81
964.1  43817.42  35312.93  80.59
965.1  43908.74  35372.53  80.56
966.1  44007.38  35430.18  80.51
967.0  44141.86  35449.70  80.31
968.0  44131.86  35401.11  80.22
969.0  44255.20  35417.00  80.03
970.0  44255.36  35470.51  80.15
971.0  44316.83  35430.68  79.95
971.9  44400.90  35465.61  79.88
972.9  44577.14  35446.98  79.52
973.9  44494.78  35440.06  79.65
974.9  44573.29  35425.21  79.48
975.8  44702.44  35411.90  79.22
976.8  44666.28  35487.04  79.45
977.8  44950.93  35521.11  79.02
978.8  44877.90  35593.60  79.31
979.7  45104.10  35618.79  78.97
981.4  47578.80  36527.46  76.77
985.3  47203.20  36328.98  76.96
989.3  47137.31  36401.90  77.23
993.3  47133.16  36608.33  77.67
997.2  47029.21  36783.29  78.21
1001.2  46955.35  37010.78  78.82
1005.2  46914.32  37353.17  79.62
1009.1  47038.13  37841.41  80.45
1013.1  47236.75  38411.53  81.32
1017.1  47375.30  38975.50  82.27
1021.0  47429.61  39417.21  83.11
1025.0  47461.87  39862.25  83.99
1029.0  47354.18  40184.72  84.86
1032.9  47271.77  40520.44  85.72
1036.9  47308.70  40981.33  86.63
1040.9  47476.08  41533.69  87.48
1044.8  47747.63  42126.05  88.23
1048.8  47970.59  42649.26  88.91
1052.7  48104.60  43095.11  89.59
1056.7  48183.46  43406.69  90.09
1060.7  48250.82  43636.09  90.44
1064.6  48272.17  43796.53  90.73
1068.6  48190.54  43817.03  90.92
1072.5  48116.11  43776.93  90.98
1076.5  48076.67  43702.60  90.90
1080.4  48048.88  43581.57  90.70
1084.4  48150.59  43496.81  90.33
1088.3  48279.53  43368.56  89.83
1092.3  48252.92  43100.53  89.32
1096.2  48221.83  42797.27  88.75
1100.2  48245.69  42493.89  88.08
1104.1  48124.97  42075.41  87.43
1108.1  48059.38  41713.44  86.80
1112.0  47955.87  41255.51  86.03
1116.0  47754.46  40655.79  85.14
1119.9  47569.76  40007.05  84.10
1123.9  47623.80  39401.21  82.73
1127.8  47592.96  38485.76  80.86
1131.8  47556.42  37313.87  78.46
1135.7  47568.82  35974.04  75.63
1139.6  47554.30  34510.74  72.57
1143.6  47510.71  33119.47  69.71
1147.5  47481.98  31953.17  67.30
1151.4  47337.52  30976.95  65.44
1155.4  47322.86  30377.53  64.19
1159.3  47329.81  29993.36  63.37
1163.2  47159.49  29629.92  62.83
1167.2  47113.86  29451.62  62.51
1171.1  47117.13  29332.36  62.25
1175.0  47022.16  29169.10  62.03
1179.0  46962.63  29037.23  61.83
1182.9  47045.30  28981.85  61.60
1186.8  47019.62  28869.74  61.40
1190.7  46784.64  28646.31  61.23
1194.7  46508.35  28426.79  61.12
1198.6  46264.68  28272.09  61.11
1202.5  46100.54  28184.64  61.14
1206.4  45962.62  28142.32  61.23
1210.3  45829.98  28141.04  61.40
1214.2  45707.13  28162.09  61.61
1218.2  45554.16  28173.15  61.85
1222.1  45384.95  28207.58  62.15
1226.0  45257.55  28273.74  62.47
1229.9  45156.00  28343.34  62.77
1233.8  45033.17  28391.91  63.05
1237.7  44950.68  28443.66  63.28
1241.6  44841.64  28470.54  63.49
1245.5  44683.61  28462.85  63.70
1249.4  44538.65  28441.52  63.86
1253.3  44401.40  28415.31  64.00
1257.2  44324.52  28420.55  64.12
1261.1  44209.48  28388.23  64.21
1265.0  44086.55  28311.42  64.22
1268.9  43910.05  28163.06  64.14
1272.8  43969.80  28142.80  64.00
1276.7  44155.69  28175.40  63.81
1280.6  44249.88  28114.16  63.53
1284.5  44188.89  27915.02  63.17
1288.4  44167.03  27714.29  62.75
1292.3  44060.50  27426.67  62.25
1296.2  43934.23  27066.72  61.61
1300.1  43787.98  26656.81  60.88
1303.9  43564.57  26178.92  60.09
1307.8  43339.22  25668.37  59.23
1311.7  43109.06  25114.56  58.26
1315.6  42877.90  24529.53  57.21
1319.5  42633.84  23908.58  56.08
1323.3  42417.44  23281.44  54.89
1327.2  42218.70  22655.19  53.66
1331.1  42002.86  22025.67  52.44
1335.0  41739.72  21370.47  51.20
1338.8  41543.11  20778.08  50.02
1342.7  41389.31  20241.88  48.91
1346.5  41042.00  19629.24  47.83
1350.4  40741.74  19070.23  46.81
1354.3  40332.24  18474.77  45.81
1358.1  39895.31  17886.41  44.83
1362.0  39644.33  17398.59  43.89
1365.8  39567.12  16974.57  42.90
1369.7  39683.68  16587.75  41.80
1373.5  39615.26  16003.05  40.40
1377.4  39354.79  15182.61  38.58
1381.2  39167.92  14255.41  36.40
1385.1  39160.09  13341.13  34.07
1389.0  39060.88  12391.54  31.72
1392.8  38834.72  11417.52  29.40
1396.6  38680.88  10530.25  27.22
1400.5  38476.57  9747.43  25.33
1404.3  38299.58  9112.52  23.79
1408.2  38263.03  8634.88  22.57
1412.0  38218.70  8253.86  21.60
1415.8  38249.29  7979.74  20.86
1419.6  38208.11  7747.19  20.28
1423.5  38172.20  7574.47  19.84
1427.3  38125.77  7448.87  19.54
1431.1  38099.78  7347.78  19.29
1434.9  38010.73  7263.11  19.11
1438.8  37949.80  7213.54  19.01
1442.6  37913.52  7187.11  18.96
