/*** Spectra Vista SIG Data ***/
name= T1.sig
comm= SIG file reprocesed for matching/overlap;Averaged Ref/Tar of files: GD3T1,GD3T2,GD3T3
data=
346.4  598.78  126.55  21.13
347.9  627.50  127.59  20.33
349.5  677.04  124.38  18.37
351.1  739.44  128.13  17.33
352.6  790.63  134.09  16.96
354.2  841.03  133.95  15.93
355.7  912.59  142.78  15.65
357.3  974.37  143.79  14.76
358.8  992.58  153.31  15.45
360.4  1062.29  158.99  14.97
361.9  1117.88  155.09  13.87
363.5  1149.55  153.74  13.37
365.1  1196.29  159.51  13.33
366.6  1260.16  159.28  12.64
368.2  1349.72  157.13  11.64
369.7  1403.95  158.90  11.32
371.3  1488.21  165.07  11.09
372.8  1577.00  169.54  10.75
374.4  1638.71  171.33  10.46
375.9  1688.10  173.44  10.27
377.4  1740.09  172.17  9.89
379.0  1788.57  169.73  9.49
380.5  1855.73  171.11  9.22
382.1  1905.98  168.63  8.85
383.6  1973.16  168.96  8.56
385.2  2065.25  165.37  8.01
386.7  2149.76  169.31  7.88
388.3  2271.83  174.65  7.69
389.8  2363.45  182.27  7.71
391.3  2453.59  189.75  7.73
392.9  2526.36  196.11  7.76
394.4  2602.50  206.14  7.92
395.9  2690.98  217.70  8.09
397.5  2829.48  228.69  8.08
399.0  2963.31  230.31  7.77
400.6  3033.76  225.65  7.44
402.1  3072.78  222.22  7.23
403.6  3116.75  213.54  6.85
405.1  3199.00  215.40  6.73
406.7  3304.00  221.31  6.70
408.2  3412.53  231.36  6.78
409.7  3521.28  234.45  6.66
411.3  3642.17  241.43  6.63
412.8  3732.75  251.53  6.74
414.3  3845.02  261.39  6.80
415.8  3965.00  273.33  6.89
417.4  4085.95  282.35  6.91
418.9  4192.21  286.73  6.84
420.4  4267.16  294.12  6.89
421.9  4346.32  299.11  6.88
423.5  4413.15  299.81  6.79
425.0  4492.75  301.47  6.71
426.5  4594.55  305.59  6.65
428.0  4712.54  306.51  6.50
429.5  4856.53  315.74  6.50
431.1  5025.20  319.92  6.37
432.6  5198.44  329.39  6.34
434.1  5370.75  338.29  6.30
435.6  5520.56  349.85  6.34
437.1  5670.60  359.58  6.34
438.6  5806.58  364.44  6.28
440.1  5943.54  379.58  6.39
441.6  6091.61  389.55  6.39
443.1  6230.93  399.60  6.41
444.7  6356.12  417.03  6.56
446.2  6474.98  431.95  6.67
447.7  6582.53  443.58  6.74
449.2  6691.68  466.56  6.97
450.7  6814.08  477.57  7.01
452.2  6930.56  489.15  7.06
453.7  7066.33  501.39  7.10
455.2  7233.85  514.81  7.12
456.7  7443.04  532.70  7.16
458.2  7673.27  552.21  7.20
459.7  7920.50  573.07  7.24
461.2  8156.07  589.51  7.23
462.7  8366.46  606.45  7.25
464.2  8568.06  624.64  7.29
465.7  8788.58  641.61  7.30
467.2  8970.50  659.63  7.35
468.7  9176.00  676.27  7.37
470.2  9305.26  693.40  7.45
471.7  9490.50  712.18  7.50
473.2  9788.42  744.51  7.61
474.6  10042.30  768.03  7.65
476.1  10127.24  770.55  7.61
477.6  10169.21  772.04  7.59
479.1  10224.56  771.65  7.55
480.6  10293.47  780.47  7.58
482.1  10426.95  791.01  7.59
483.6  10590.11  808.83  7.64
485.1  10796.39  827.35  7.66
486.6  11041.55  856.92  7.76
488.0  11290.50  880.53  7.80
489.5  11568.25  916.68  7.92
491.0  11840.59  951.59  8.04
492.5  12119.22  994.25  8.20
494.0  12409.65  1044.22  8.41
495.4  12660.45  1091.42  8.62
496.9  12912.44  1147.62  8.89
498.4  13155.80  1207.99  9.18
499.9  13408.52  1280.34  9.55
501.4  13645.90  1356.91  9.94
502.8  13864.50  1433.36  10.34
504.3  14081.40  1524.48  10.83
505.8  14291.05  1618.19  11.32
507.2  14436.37  1715.71  11.88
508.7  14548.87  1812.28  12.46
510.2  14651.50  1918.14  13.09
511.6  14718.08  2029.01  13.79
513.1  14838.45  2150.75  14.49
514.6  14986.45  2280.54  15.22
516.0  15112.04  2411.84  15.96
517.5  15305.31  2557.40  16.71
519.0  15537.89  2712.64  17.46
520.5  15768.60  2861.25  18.15
521.9  16045.99  3027.63  18.87
523.4  16363.11  3197.87  19.54
524.8  16675.79  3368.44  20.20
526.3  17027.53  3539.07  20.78
527.8  17380.80  3710.46  21.35
529.2  17706.86  3871.29  21.86
530.7  18056.71  4032.62  22.33
532.1  18377.28  4179.08  22.74
533.6  18738.23  4332.87  23.12
535.0  19114.67  4484.17  23.46
536.5  19476.07  4626.48  23.75
538.0  19846.24  4756.28  23.97
539.4  20198.95  4888.86  24.20
540.9  20626.19  5044.35  24.46
542.3  20984.92  5199.56  24.78
543.8  21250.33  5318.67  25.03
545.2  21329.19  5383.62  25.24
546.6  21331.64  5428.10  25.45
548.1  21362.06  5471.89  25.61
549.5  21376.46  5515.39  25.80
551.0  21386.66  5554.82  25.97
552.4  21443.54  5598.48  26.11
553.9  21463.89  5626.57  26.21
555.3  21521.57  5651.33  26.26
556.8  21650.10  5691.60  26.29
558.2  21773.81  5717.48  26.26
559.6  21936.94  5750.70  26.21
561.1  22168.25  5794.10  26.14
562.5  22423.78  5833.74  26.02
564.0  22757.43  5886.27  25.87
565.4  23059.14  5918.26  25.67
566.8  23449.52  5965.16  25.44
568.3  23818.66  5992.48  25.16
569.7  24198.01  6018.78  24.87
571.1  24579.14  6035.57  24.56
572.6  24952.86  6043.46  24.22
574.0  25317.60  6051.10  23.90
575.4  25678.69  6056.78  23.59
576.9  26008.29  6061.21  23.30
578.3  26306.64  6056.77  23.02
579.7  26593.28  6052.99  22.76
581.1  26823.10  6036.87  22.51
582.6  27065.10  6028.13  22.27
584.0  27286.52  6023.35  22.07
585.4  27587.92  6034.85  21.87
586.8  27978.96  6083.78  21.74
588.3  28419.30  6145.78  21.63
589.7  28786.68  6192.58  21.51
591.1  29016.81  6212.10  21.41
592.5  29127.43  6204.38  21.30
594.0  29186.34  6186.40  21.20
595.4  29194.56  6161.55  21.11
596.8  29193.45  6128.98  20.99
598.2  29177.08  6099.02  20.90
599.6  29153.88  6066.76  20.81
601.0  29216.28  6050.60  20.71
602.4  29261.60  6025.33  20.59
603.9  29364.60  6000.50  20.43
605.3  29484.10  5970.25  20.25
606.7  29584.80  5932.08  20.05
608.1  29785.49  5907.80  19.83
609.5  30013.28  5879.13  19.59
610.9  30296.78  5861.61  19.35
612.3  30557.28  5830.14  19.08
613.7  30914.00  5813.69  18.81
615.1  31159.08  5774.97  18.53
616.5  31406.64  5744.19  18.29
617.9  31801.61  5744.86  18.06
619.3  32170.62  5746.11  17.86
620.7  32635.92  5772.87  17.69
622.1  33083.75  5865.08  17.73
623.5  33564.04  6017.20  17.93
624.9  34116.86  6199.48  18.17
626.3  34490.69  6336.59  18.37
627.7  34145.81  6300.84  18.45
629.1  33851.16  6238.23  18.43
630.5  33743.57  6193.16  18.35
631.9  33775.53  6170.80  18.27
633.3  33808.52  6128.33  18.13
634.7  33992.91  6075.84  17.87
636.1  34075.08  5995.35  17.59
637.5  34196.58  5915.05  17.30
638.9  34374.61  5795.46  16.86
640.2  34545.58  5624.76  16.28
641.6  34634.34  5431.92  15.68
643.0  34657.83  5245.12  15.13
644.4  34696.37  5076.12  14.63
645.8  34653.86  4907.99  14.16
647.2  34834.41  4776.98  13.71
648.5  34958.93  4657.17  13.32
649.9  34861.32  4528.52  12.99
651.3  34789.65  4425.78  12.72
652.7  34680.00  4341.80  12.52
654.1  34452.30  4264.99  12.38
655.5  34172.42  4175.22  12.22
656.8  33904.63  4060.51  11.98
658.2  34070.04  3993.88  11.72
659.6  34442.82  3930.49  11.41
660.9  34748.70  3851.76  11.08
662.3  35067.95  3767.02  10.74
663.7  35364.00  3685.36  10.42
665.0  35617.00  3604.67  10.12
666.4  35877.31  3531.98  9.84
667.8  36209.10  3477.88  9.60
669.1  36482.80  3431.24  9.41
670.5  36799.72  3400.35  9.24
671.9  36995.40  3381.23  9.14
673.2  37270.13  3387.88  9.09
674.6  37530.47  3396.78  9.05
676.0  37841.78  3433.99  9.07
677.3  38141.57  3486.92  9.14
678.7  38483.75  3573.97  9.29
680.0  38922.37  3696.95  9.50
681.4  39389.45  3867.61  9.82
682.8  39844.35  4091.06  10.27
684.1  40287.78  4382.97  10.88
685.5  40705.56  4747.02  11.66
686.8  41091.84  5197.82  12.65
688.2  41433.89  5726.38  13.82
689.5  41549.57  6315.05  15.20
690.9  41633.44  6967.81  16.74
692.2  41697.60  7679.58  18.42
693.6  41771.65  8445.55  20.22
694.9  41721.88  9239.92  22.15
696.2  41751.90  10077.45  24.14
697.6  41766.04  10923.74  26.15
698.9  41796.48  11767.71  28.15
700.3  41844.24  12592.43  30.09
701.6  41918.48  13400.08  31.97
703.0  41979.40  14184.59  33.79
704.3  41981.71  14916.03  35.53
705.6  41967.18  15586.43  37.14
707.0  41980.75  16242.70  38.69
708.3  41872.71  16823.43  40.18
709.6  41753.67  17373.61  41.61
711.0  41589.99  17867.14  42.96
712.3  41418.66  18315.36  44.22
713.6  41354.04  18790.91  45.44
714.9  41240.96  19210.04  46.58
716.3  41218.54  19656.56  47.69
717.6  41221.95  20080.31  48.71
718.9  41134.56  20441.35  49.69
720.2  40936.00  20736.89  50.66
721.6  40765.66  21010.53  51.54
722.9  40572.15  21222.81  52.31
724.2  40305.71  21379.78  53.04
725.5  40134.57  21534.18  53.65
726.8  39960.91  21679.20  54.25
728.1  39855.98  21837.66  54.79
729.5  39766.23  21970.32  55.25
730.8  39707.44  22098.20  55.65
732.1  39612.07  22188.40  56.01
733.4  39556.45  22290.41  56.35
734.7  39507.57  22379.16  56.65
736.0  39511.29  22491.18  56.92
737.3  39463.58  22570.90  57.19
738.6  39569.04  22726.23  57.43
739.9  39770.92  22909.58  57.60
741.2  39928.98  23076.14  57.79
742.5  40206.42  23309.56  57.97
743.8  40696.43  23635.92  58.08
745.1  41398.16  24106.85  58.23
746.4  42245.84  24666.77  58.39
747.7  43136.62  25260.86  58.56
749.0  43980.49  25856.87  58.79
750.3  44484.44  26234.41  58.97
751.6  44396.66  26273.85  59.18
752.9  43969.12  26078.17  59.31
754.2  43470.53  25835.15  59.43
755.4  42928.75  25564.42  59.55
756.7  42746.48  25485.81  59.62
758.0  42774.71  25536.83  59.70
759.3  43048.01  25715.77  59.74
760.6  43418.76  25947.56  59.76
761.9  43775.94  26175.36  59.79
763.1  43996.61  26330.60  59.85
764.4  44239.34  26501.33  59.90
765.7  44424.25  26635.70  59.96
767.0  44583.75  26746.29  59.99
768.2  44688.00  26847.29  60.08
769.5  44782.92  26928.54  60.13
770.8  44990.42  27064.60  60.16
772.0  45014.41  27114.52  60.24
773.3  45100.97  27175.06  60.25
774.6  45226.84  27273.46  60.30
775.8  45313.45  27353.02  60.36
777.1  45344.81  27388.64  60.40
778.4  45245.88  27375.71  60.50
779.6  45226.44  27378.48  60.54
780.9  45132.00  27339.20  60.58
782.1  44952.26  27251.54  60.62
783.4  44936.32  27275.73  60.70
784.6  44935.72  27293.28  60.74
785.9  45255.62  27473.01  60.71
787.1  45836.93  27839.53  60.74
788.4  46288.94  28180.70  60.88
789.6  46219.23  28255.65  61.13
790.9  45788.99  28092.38  61.35
792.1  45296.16  27806.89  61.39
793.4  44771.54  27528.76  61.49
794.6  44415.30  27346.26  61.57
795.8  44134.47  27185.82  61.60
797.1  43801.05  26998.60  61.64
798.3  43569.08  26874.10  61.68
799.5  43411.48  26814.81  61.77
800.8  43273.13  26744.20  61.80
802.0  43071.08  26672.22  61.93
803.2  42890.28  26586.64  61.99
804.5  42742.15  26525.97  62.06
805.7  42601.95  26444.57  62.07
806.9  42426.40  26370.49  62.16
808.1  42305.67  26300.58  62.17
809.4  42221.44  26249.14  62.17
810.6  42105.70  26191.62  62.20
811.8  42062.43  26140.07  62.15
813.0  42071.08  26147.25  62.15
814.2  42081.20  26156.76  62.16
815.4  42185.03  26220.02  62.15
816.6  42225.34  26240.70  62.14
817.9  42273.21  26276.55  62.16
819.1  42166.58  26241.40  62.23
820.3  42039.03  26145.52  62.19
821.5  41905.07  26073.85  62.22
822.7  41849.58  26024.99  62.19
823.9  41838.35  25985.55  62.11
825.1  41851.34  25949.53  62.00
826.3  41890.94  25925.56  61.89
827.5  41937.05  25891.65  61.74
828.7  42011.28  25864.32  61.57
829.9  42039.57  25819.99  61.42
831.0  42140.75  25810.42  61.25
832.2  42235.78  25804.65  61.10
833.4  42305.18  25801.52  60.99
834.6  42417.19  25816.88  60.86
835.8  42496.65  25836.93  60.80
837.0  42597.61  25852.56  60.69
838.1  42745.68  25935.49  60.67
839.3  42856.00  25981.13  60.62
840.5  42989.60  26046.18  60.59
841.7  43156.80  26124.52  60.53
842.9  43298.86  26189.66  60.49
844.0  43430.88  26280.19  60.51
845.2  43568.90  26379.33  60.55
846.4  43732.15  26458.49  60.50
847.5  43960.00  26591.40  60.49
848.7  44164.79  26730.31  60.52
849.9  44393.85  26854.34  60.49
851.0  44478.08  26932.56  60.55
852.2  44569.63  26986.41  60.55
853.3  44562.81  27011.44  60.61
854.5  44594.90  27036.36  60.63
855.6  44615.97  27032.89  60.59
856.8  44687.86  27034.34  60.50
857.9  44681.40  27040.24  60.52
859.1  44832.20  27111.36  60.47
860.2  44876.88  27131.28  60.46
861.4  44954.55  27165.45  60.43
862.5  45021.69  27211.04  60.44
863.7  45150.84  27254.82  60.36
864.8  45213.35  27280.07  60.34
865.9  45167.77  27255.40  60.34
867.1  45241.43  27296.88  60.34
868.2  45295.54  27302.01  60.28
869.3  45314.27  27303.79  60.25
870.5  45282.48  27272.96  60.23
871.6  45315.83  27264.98  60.17
872.7  45413.27  27277.43  60.06
873.9  45478.16  27272.93  59.97
875.0  45456.71  27256.33  59.96
876.1  45452.45  27222.69  59.89
877.2  45498.99  27214.28  59.81
878.3  45519.98  27179.77  59.71
879.4  45563.53  27200.12  59.70
880.5  45631.08  27188.21  59.58
881.7  45596.20  27171.82  59.59
882.8  45693.96  27177.45  59.48
883.9  45722.91  27163.43  59.41
885.0  45675.63  27119.09  59.37
886.1  45712.78  27082.29  59.24
887.2  45537.58  26975.92  59.24
888.3  45475.07  26868.39  59.08
889.4  45347.40  26774.16  59.04
890.5  45259.13  26706.43  59.01
891.6  45193.70  26621.19  58.90
892.7  45201.31  26555.02  58.75
893.8  45270.56  26529.41  58.60
894.9  45248.28  26487.96  58.54
896.0  45235.90  26427.53  58.42
897.0  45257.72  26428.34  58.40
898.1  45230.13  26401.27  58.37
899.2  45252.30  26367.44  58.27
900.3  45165.90  26256.94  58.13
901.4  45101.16  26182.05  58.05
902.4  45077.20  26149.83  58.01
903.5  45018.01  26068.30  57.91
904.6  45035.56  26022.67  57.78
905.7  45038.93  25979.42  57.68
906.7  44985.82  25916.87  57.61
907.8  45025.57  25877.03  57.47
908.9  44904.57  25788.95  57.43
909.9  44897.74  25714.43  57.27
911.0  44830.08  25618.50  57.15
912.1  44749.25  25523.79  57.04
913.1  44707.00  25425.85  56.87
914.2  44554.62  25308.51  56.80
915.2  44505.45  25218.75  56.66
916.3  44491.35  25158.50  56.55
917.3  44461.10  25058.24  56.36
918.4  44383.35  24924.68  56.16
919.4  44330.69  24820.81  55.99
920.5  44315.70  24701.10  55.74
921.5  44285.78  24625.93  55.61
922.6  44268.10  24490.17  55.32
923.6  44262.16  24394.03  55.11
924.7  44333.00  24303.60  54.82
925.7  44276.22  24165.67  54.58
926.7  44252.98  24085.73  54.43
927.8  44374.33  23991.40  54.07
928.8  44502.63  23922.73  53.76
929.9  44598.23  23865.61  53.51
930.9  44802.27  23833.65  53.20
931.9  45011.35  23801.54  52.88
932.9  45355.12  23793.89  52.46
934.0  45370.16  23694.35  52.22
935.0  45397.97  23539.86  51.85
936.0  45413.73  23391.51  51.51
937.0  45319.95  23204.76  51.20
938.1  45295.44  23041.11  50.87
939.1  45257.91  22878.12  50.55
940.1  45342.90  22787.59  50.26
941.1  45568.46  22754.71  49.94
942.1  45803.34  22710.46  49.58
943.1  45999.43  22650.95  49.24
944.1  46171.28  22615.49  48.98
945.2  46338.18  22488.14  48.53
946.2  46411.22  22388.55  48.24
947.2  46518.25  22241.73  47.81
948.2  46693.82  22142.17  47.42
949.2  46838.19  22024.50  47.02
950.2  46912.95  21889.90  46.66
951.2  46909.80  21749.39  46.36
952.2  47054.57  21605.30  45.92
953.2  47260.85  21495.11  45.48
954.2  47365.65  21382.38  45.14
955.2  47408.68  21230.98  44.78
956.2  47434.65  21090.42  44.46
957.2  47543.77  20984.40  44.14
958.2  47601.59  20882.30  43.87
959.2  47735.55  20828.04  43.63
960.1  47775.14  20775.75  43.49
961.1  47870.63  20714.92  43.27
962.1  47933.44  20686.25  43.16
963.1  48032.50  20660.24  43.01
964.1  48057.21  20644.86  42.96
965.1  48243.99  20640.37  42.78
966.1  48335.33  20671.87  42.77
967.0  48410.39  20688.55  42.74
968.0  48434.88  20720.98  42.78
969.0  48556.60  20703.79  42.64
970.0  48603.65  20745.21  42.68
971.0  48737.12  20752.58  42.58
971.9  48722.90  20755.06  42.60
972.9  48879.95  20879.71  42.72
973.9  48859.53  20892.60  42.76
974.9  49044.08  20985.80  42.79
975.8  49101.73  21018.19  42.81
976.8  49135.91  21166.24  43.08
977.8  49315.41  21259.57  43.11
978.8  49372.50  21369.78  43.28
979.7  49504.50  21478.84  43.39
981.4  50850.20  22134.57  43.53
985.3  50481.20  22286.03  44.15
989.3  50535.22  22452.44  44.43
993.3  50635.09  22589.74  44.61
997.2  50595.02  22681.12  44.83
1001.2  50545.04  22826.57  45.16
1005.2  50473.33  23055.48  45.68
1009.1  50535.74  23395.13  46.29
1013.1  50697.93  23799.64  46.94
1017.1  50843.90  24183.85  47.56
1021.0  50855.49  24491.38  48.16
1025.0  50816.26  24815.16  48.83
1029.0  50641.08  25076.87  49.52
1032.9  50496.42  25338.82  50.18
1036.9  50486.34  25672.44  50.85
1040.9  50614.23  26055.88  51.48
1044.8  50848.91  26446.56  52.01
1048.8  51055.33  26790.05  52.47
1052.7  51200.97  27082.75  52.89
1056.7  51265.76  27282.30  53.22
1060.7  51328.86  27425.99  53.43
1064.6  51364.29  27534.79  53.61
1068.6  51285.22  27541.14  53.70
1072.5  51205.93  27499.40  53.70
1076.5  51155.97  27432.16  53.62
1080.4  51154.95  27330.23  53.43
1084.4  51258.31  27244.83  53.15
1088.3  51367.47  27136.55  52.83
1092.3  51376.13  26911.70  52.38
1096.2  51342.58  26642.88  51.89
1100.2  51360.86  26403.71  51.41
1104.1  51244.60  26082.87  50.90
1108.1  51175.76  25790.65  50.40
1112.0  51059.75  25462.46  49.87
1116.0  50831.30  25052.19  49.28
1119.9  50653.13  24600.61  48.57
1123.9  50703.41  24150.00  47.63
1127.8  50649.60  23482.88  46.36
1131.8  50608.23  22632.67  44.72
1135.7  50617.81  21668.21  42.81
1139.6  50606.06  20621.78  40.75
1143.6  50555.26  19608.67  38.79
1147.5  50517.05  18763.73  37.14
1151.4  50365.69  18067.62  35.87
1155.4  50355.11  17612.24  34.98
1159.3  50376.78  17319.48  34.38
1163.2  50207.59  17059.80  33.98
1167.2  50161.80  16910.58  33.71
1171.1  50174.37  16807.76  33.50
1175.0  50101.08  16696.88  33.33
1179.0  50065.70  16602.95  33.16
1182.9  50165.17  16546.46  32.98
1186.8  50159.61  16474.76  32.84
1190.7  49934.95  16345.61  32.73
1194.7  49665.47  16206.30  32.63
1198.6  49438.62  16111.10  32.59
1202.5  49264.40  16069.16  32.62
1206.4  49122.14  16052.02  32.68
1210.3  49037.26  16054.60  32.74
1214.2  48930.30  16083.32  32.87
1218.2  48765.56  16122.35  33.06
1222.1  48630.48  16158.85  33.23
1226.0  48538.40  16214.95  33.41
1229.9  48450.48  16279.48  33.60
1233.8  48352.03  16322.95  33.76
1237.7  48317.50  16370.20  33.88
1241.6  48229.08  16405.65  34.02
1245.5  48061.09  16406.04  34.14
1249.4  47934.98  16418.59  34.25
1253.3  47803.87  16423.52  34.36
1257.2  47735.46  16426.85  34.41
1261.1  47624.11  16400.55  34.44
1265.0  47490.52  16349.70  34.43
1268.9  47304.07  16260.54  34.37
1272.8  47372.70  16242.15  34.29
1276.7  47590.81  16258.25  34.16
1280.6  47691.16  16203.64  33.98
1284.5  47615.01  16068.09  33.75
1288.4  47591.67  15932.51  33.48
1292.3  47467.75  15728.17  33.13
1296.2  47318.59  15490.61  32.74
1300.1  47148.87  15217.29  32.27
1303.9  46897.39  14889.78  31.75
1307.8  46639.44  14540.47  31.18
1311.7  46386.67  14164.13  30.53
1315.6  46123.85  13770.47  29.86
1319.5  45848.18  13345.98  29.11
1323.3  45606.50  12919.11  28.33
1327.2  45386.16  12504.15  27.55
1331.1  45132.53  12095.26  26.80
1335.0  44824.46  11681.55  26.06
1338.8  44600.56  11307.57  25.35
1342.7  44421.07  10967.44  24.69
1346.5  44042.02  10600.58  24.07
1350.4  43720.62  10278.40  23.51
1354.3  43279.60  9947.12  22.98
1358.1  42799.92  9623.66  22.49
1362.0  42533.76  9333.32  21.94
1365.8  42447.40  9049.17  21.32
1369.7  42569.31  8766.84  20.59
1373.5  42515.11  8379.58  19.71
1377.4  42239.08  7889.20  18.68
1381.2  42024.35  7337.95  17.46
1385.1  42007.68  6784.38  16.15
1389.0  41913.21  6217.86  14.84
1392.8  41686.58  5653.19  13.56
1396.6  41522.45  5160.63  12.43
1400.5  41297.26  4730.94  11.46
1404.3  41119.22  4381.21  10.65
1408.2  41089.83  4112.16  10.01
1412.0  41038.18  3898.62  9.50
1415.8  41063.56  3742.02  9.11
1419.6  41020.11  3612.04  8.81
1423.5  40984.07  3511.31  8.57
1427.3  40938.38  3436.86  8.40
1431.1  40915.35  3386.75  8.28
1434.9  40812.08  3345.55  8.20
1438.8  40755.58  3315.08  8.13
1442.6  40720.04  3290.44  8.08
1446.4  40579.53  3266.95  8.05
1450.2  40476.97  3253.97  8.04
1454.0  40349.16  3242.16  8.04
1457.8  40313.93  3243.57  8.05
1461.6  40291.52  3256.11  8.08
1465.4  40157.17  3275.09  8.16
1469.2  39958.10  3294.20  8.24
1473.0  39808.79  3325.94  8.35
1476.8  39739.71  3382.83  8.51
1480.7  39668.27  3452.69  8.70
