/*** Spectra Vista SIG Data ***/
name= B.sig
comm= Averaged Ref/Tar of files: B1,B2,B3
data=
346.4  509.60  101.92  20.00
347.9  549.06  95.80  17.45
349.5  608.40  96.09  15.79
351.1  655.20  98.59  15.05
352.6  708.40  104.15  14.70
354.2  752.68  107.34  14.26
355.7  818.30  103.72  12.68
357.3  873.81  116.51  13.33
358.8  891.23  109.04  12.24
360.4  967.31  115.84  11.98
361.9  1009.93  120.73  11.95
363.5  1059.53  121.42  11.46
365.1  1102.67  116.97  10.61
366.6  1156.59  115.08  9.95
368.2  1218.77  124.90  10.25
369.7  1306.00  117.98  9.03
371.3  1379.56  124.24  9.01
372.8  1457.48  128.37  8.81
374.4  1528.58  128.16  8.38
375.9  1575.56  128.87  8.18
377.4  1632.76  133.13  8.15
379.0  1683.54  134.09  7.96
380.5  1741.87  130.08  7.47
382.1  1805.51  127.26  7.05
383.6  1862.60  123.23  6.62
385.2  1949.75  123.93  6.36
386.7  2036.04  131.04  6.44
388.3  2135.96  129.72  6.07
389.8  2212.47  133.59  6.04
391.3  2314.34  138.51  5.98
392.9  2392.65  145.29  6.07
394.4  2474.90  156.29  6.32
395.9  2552.82  166.21  6.51
397.5  2664.75  168.82  6.34
399.0  2774.82  171.39  6.18
400.6  2852.64  169.80  5.95
402.1  2910.24  164.77  5.66
403.6  2965.71  161.11  5.43
405.1  3036.77  161.78  5.33
406.7  3133.76  167.55  5.35
408.2  3234.33  176.42  5.45
409.7  3330.88  177.11  5.32
411.3  3437.91  190.33  5.54
412.8  3528.93  191.81  5.44
414.3  3634.54  201.35  5.54
415.8  3740.00  211.33  5.65
417.4  3868.37  215.89  5.58
418.9  3954.39  223.31  5.65
420.4  4037.85  227.65  5.64
421.9  4106.74  230.38  5.61
423.5  4196.00  235.68  5.62
425.0  4263.51  237.34  5.57
426.5  4364.50  235.64  5.40
428.0  4488.82  237.54  5.29
429.5  4615.58  244.90  5.31
431.1  4756.23  250.78  5.27
432.6  4917.76  258.13  5.25
434.1  5064.68  267.19  5.28
435.6  5199.35  276.06  5.31
437.1  5333.25  283.92  5.32
438.6  5454.84  289.51  5.31
440.1  5584.70  294.73  5.28
441.6  5717.14  306.79  5.37
443.1  5852.25  311.58  5.32
444.7  5982.11  320.31  5.35
446.2  6104.50  328.10  5.37
447.7  6213.60  336.57  5.42
449.2  6315.84  345.02  5.46
450.7  6414.72  348.05  5.43
452.2  6543.45  356.06  5.44
453.7  6682.65  359.84  5.38
455.2  6842.54  370.01  5.41
456.7  7029.44  378.52  5.38
458.2  7231.16  394.00  5.45
459.7  7428.75  409.27  5.51
461.2  7633.63  421.95  5.53
462.7  7815.14  441.06  5.64
464.2  8000.76  453.35  5.67
465.7  8191.53  468.62  5.72
467.2  8352.58  479.97  5.75
468.7  8552.00  493.87  5.77
470.2  8711.17  504.26  5.79
471.7  8854.00  517.12  5.84
473.2  9050.37  529.47  5.85
474.6  9252.88  534.71  5.78
476.1  9378.88  535.37  5.71
477.6  9464.51  533.49  5.64
479.1  9567.20  535.85  5.60
480.6  9658.16  535.04  5.54
482.1  9797.74  543.09  5.54
483.6  9963.22  556.70  5.59
485.1  10140.49  571.91  5.64
486.6  10356.19  593.32  5.73
488.0  10562.50  616.20  5.83
489.5  10784.97  647.08  6.00
491.0  10998.86  686.50  6.24
492.5  11224.98  725.98  6.47
494.0  11462.99  772.37  6.74
495.4  11663.85  815.98  7.00
496.9  11870.36  865.06  7.29
498.4  12074.30  920.72  7.63
499.9  12278.41  979.66  7.98
501.4  12476.75  1041.42  8.35
502.8  12664.51  1102.50  8.71
504.3  12846.60  1169.04  9.10
505.8  13033.73  1241.97  9.53
507.2  13172.68  1312.96  9.97
508.7  13289.99  1375.62  10.35
510.2  13412.81  1442.24  10.75
511.6  13494.72  1511.02  11.20
513.1  13630.43  1584.26  11.62
514.6  13795.53  1661.29  12.04
516.0  13946.28  1735.92  12.45
517.5  14135.83  1824.34  12.91
519.0  14365.19  1910.42  13.30
520.5  14579.60  2001.89  13.73
521.9  14828.55  2097.76  14.15
523.4  15093.49  2195.36  14.55
524.8  15349.14  2296.77  14.96
526.3  15633.70  2398.18  15.34
527.8  15915.89  2498.70  15.70
529.2  16178.21  2592.69  16.03
530.7  16455.24  2691.83  16.36
532.1  16698.15  2781.92  16.66
533.6  16994.07  2878.33  16.94
535.0  17295.55  2973.89  17.19
536.5  17581.25  3067.49  17.45
538.0  17895.84  3163.57  17.68
539.4  18160.64  3257.19  17.94
540.9  18488.86  3362.46  18.19
542.3  18738.28  3455.43  18.44
543.8  18940.29  3534.12  18.66
545.2  19020.35  3586.45  18.86
546.6  19057.19  3620.10  19.00
548.1  19121.11  3654.33  19.11
549.5  19166.91  3687.57  19.24
551.0  19217.70  3720.62  19.36
552.4  19311.21  3763.10  19.49
553.9  19371.38  3794.09  19.59
555.3  19461.20  3835.26  19.71
556.8  19596.88  3887.80  19.84
558.2  19743.75  3935.70  19.93
559.6  19902.71  3993.32  20.06
561.1  20117.50  4067.27  20.22
562.5  20332.52  4143.85  20.38
564.0  20611.34  4238.08  20.56
565.4  20865.50  4326.89  20.74
566.8  21177.73  4429.49  20.92
568.3  21463.05  4530.27  21.11
569.7  21776.78  4631.45  21.27
571.1  22080.65  4724.98  21.40
572.6  22373.82  4815.72  21.52
574.0  22675.95  4909.08  21.65
575.4  22958.44  4997.70  21.77
576.9  23231.09  5084.31  21.89
578.3  23477.03  5164.69  22.00
579.7  23721.74  5246.19  22.12
581.1  23920.49  5319.01  22.24
582.6  24132.47  5393.34  22.35
584.0  24305.80  5467.90  22.50
585.4  24549.94  5560.01  22.65
586.8  24845.17  5665.02  22.80
588.3  25201.80  5786.98  22.96
589.7  25517.70  5894.93  23.10
591.1  25735.55  5976.12  23.22
592.5  25883.00  6031.83  23.30
594.0  25998.42  6071.55  23.35
595.4  26057.54  6107.49  23.44
596.8  26115.38  6145.00  23.53
598.2  26174.55  6183.99  23.63
599.6  26202.06  6214.97  23.72
601.0  26298.70  6269.03  23.84
602.4  26372.18  6314.21  23.94
603.9  26501.77  6370.70  24.04
605.3  26625.41  6430.17  24.15
606.7  26749.80  6483.60  24.24
608.1  26941.18  6553.65  24.33
609.5  27151.69  6626.01  24.40
610.9  27387.74  6707.34  24.49
612.3  27589.20  6783.42  24.59
613.7  27871.80  6871.60  24.65
615.1  28061.64  6918.05  24.65
616.5  28235.16  6964.63  24.67
617.9  28534.12  7059.76  24.74
619.3  28808.15  7164.29  24.87
620.7  29149.14  7292.48  25.02
622.1  29527.66  7288.40  24.68
623.5  29951.83  7199.08  24.04
624.9  30436.35  7139.79  23.46
626.3  30757.12  7079.58  23.02
627.7  30461.43  6973.13  22.89
629.1  30188.34  6935.95  22.98
630.5  30083.03  6967.41  23.16
631.9  30076.12  7052.03  23.45
633.3  30078.24  7130.09  23.71
634.7  30183.54  7207.37  23.88
636.1  30268.81  7200.59  23.79
637.5  30374.19  7190.37  23.67
638.9  30520.15  7193.48  23.57
640.2  30643.60  7205.55  23.51
641.6  30733.56  7199.71  23.43
643.0  30777.50  7166.90  23.29
644.4  30869.16  7147.32  23.15
645.8  30855.38  7100.19  23.01
647.2  31023.20  7098.45  22.88
648.5  31185.15  7112.39  22.81
649.9  31117.13  7104.42  22.83
651.3  31099.80  7132.52  22.93
652.7  31059.00  7126.74  22.95
654.1  30961.56  6895.54  22.27
655.5  30829.51  6607.39  21.43
656.8  30685.81  6344.24  20.67
658.2  30861.69  6190.50  20.06
659.6  31181.89  6089.08  19.53
660.9  31452.29  5985.51  19.03
662.3  31767.46  5883.00  18.52
663.7  32102.70  5761.28  17.95
665.0  32334.98  5645.80  17.46
666.4  32575.38  5537.23  17.00
667.8  32873.84  5462.74  16.62
669.1  33084.01  5383.26  16.27
670.5  33327.47  5329.57  15.99
671.9  33513.12  5287.41  15.78
673.2  33742.50  5289.19  15.68
674.6  33950.66  5310.39  15.64
676.0  34219.05  5375.24  15.71
677.3  34494.18  5472.98  15.87
678.7  34767.13  5614.25  16.15
680.0  35103.31  5833.96  16.62
681.4  35420.13  6128.87  17.30
682.8  35763.00  6513.17  18.21
684.1  36073.44  6993.17  19.39
685.5  36318.59  7555.06  20.80
686.8  36607.26  8198.36  22.40
688.2  36844.31  8886.54  24.12
689.5  36898.97  9575.86  25.95
690.9  36950.15  10284.24  27.83
692.2  37008.15  10976.90  29.66
693.6  37024.93  11673.80  31.53
694.9  37005.38  12297.98  33.23
696.2  37027.13  12883.34  34.79
697.6  37047.86  13417.11  36.22
698.9  37049.76  13947.29  37.64
700.3  37075.62  14435.09  38.93
701.6  37124.24  14895.10  40.12
703.0  37178.40  15304.19  41.16
704.3  37172.20  15623.60  42.03
705.6  37157.22  15945.78  42.91
707.0  37168.46  16228.43  43.66
708.3  37076.04  16431.96  44.32
709.6  36967.81  16613.53  44.94
711.0  36867.73  16742.73  45.41
712.3  36770.31  16863.38  45.86
713.6  36755.88  17001.04  46.25
714.9  36684.64  17120.49  46.67
716.3  36701.44  17248.23  47.00
717.6  36734.04  17384.96  47.33
718.9  36680.73  17451.61  47.58
720.2  36496.25  17430.71  47.76
721.6  36394.28  17432.10  47.90
722.9  36240.12  17453.81  48.16
724.2  36067.30  17432.09  48.33
725.5  35963.70  17445.27  48.51
726.8  35833.96  17418.74  48.61
728.1  35810.80  17392.62  48.57
729.5  35779.10  17385.21  48.59
730.8  35779.13  17376.92  48.57
732.1  35704.25  17375.08  48.66
733.4  35690.92  17387.80  48.72
734.7  35685.89  17359.49  48.65
736.0  35729.66  17381.49  48.65
737.3  35717.44  17386.48  48.68
738.6  35830.21  17452.49  48.71
739.9  36014.88  17607.87  48.89
741.2  36161.58  17678.75  48.89
742.5  36363.94  17844.82  49.07
743.8  36737.66  18106.94  49.29
745.1  37309.08  18458.64  49.47
746.4  37926.98  18817.83  49.62
747.7  38536.99  19149.48  49.69
749.0  39118.92  19469.50  49.77
750.3  39493.02  19607.00  49.65
751.6  39440.80  19551.95  49.57
752.9  39084.79  19411.49  49.67
754.2  38731.25  19255.28  49.72
755.4  38386.91  19080.14  49.70
756.7  38244.09  19057.52  49.83
758.0  38261.36  19130.58  50.00
759.3  38489.95  19314.53  50.18
760.6  38786.44  19571.96  50.46
761.9  39062.28  19795.71  50.68
763.1  39197.21  19910.77  50.80
764.4  39371.54  20058.75  50.95
765.7  39490.75  20166.90  51.07
767.0  39577.16  20252.25  51.17
768.2  39644.64  20328.45  51.28
769.5  39697.68  20408.40  51.41
770.8  39836.32  20517.03  51.50
772.0  39856.44  20565.25  51.60
773.3  39898.95  20647.41  51.75
774.6  39978.84  20726.12  51.84
775.8  40054.79  20773.03  51.86
777.1  40085.96  20798.66  51.89
778.4  40059.57  20785.49  51.89
779.6  39999.54  20815.90  52.04
780.9  39948.00  20827.20  52.14
782.1  39837.20  20789.84  52.19
783.4  39802.88  20813.87  52.29
784.6  39851.08  20861.86  52.35
785.9  40095.40  21086.28  52.59
787.1  40531.58  21404.69  52.81
788.4  40834.19  21512.15  52.68
789.6  40796.10  21331.29  52.29
790.9  40479.11  21044.31  51.99
792.1  40128.24  20855.82  51.97
793.4  39739.41  20665.26  52.00
794.6  39507.48  20516.13  51.93
795.8  39314.07  20420.57  51.94
797.1  39097.95  20324.59  51.98
798.3  38940.83  20266.90  52.05
799.5  38821.14  20216.18  52.08
800.8  38733.05  20152.87  52.03
802.0  38591.76  20100.74  52.09
803.2  38469.72  20028.42  52.06
804.5  38377.94  19974.38  52.05
805.7  38264.87  19930.96  52.09
806.9  38181.95  19878.02  52.06
808.1  38074.65  19851.06  52.14
809.4  38033.33  19847.63  52.18
810.6  37951.55  19823.44  52.23
811.8  37942.61  19841.60  52.29
813.0  37965.80  19876.14  52.35
814.2  37975.49  19911.61  52.43
815.4  38039.93  19939.79  52.42
816.6  38032.65  19940.46  52.43
817.9  38050.16  19934.69  52.39
819.1  37997.24  19870.82  52.30
820.3  37865.18  19784.73  52.25
821.5  37787.61  19737.14  52.23
822.7  37714.41  19703.76  52.24
823.9  37704.87  19708.28  52.27
825.1  37688.07  19684.89  52.23
826.3  37716.38  19687.20  52.20
827.5  37726.06  19688.25  52.19
828.7  37779.60  19680.96  52.09
829.9  37796.29  19688.58  52.09
831.0  37849.02  19732.15  52.13
832.2  37913.75  19785.53  52.19
833.4  37950.44  19823.99  52.24
834.6  37978.13  19865.00  52.31
835.8  38031.53  19916.82  52.37
837.0  38073.26  20006.97  52.55
838.1  38178.69  20110.17  52.67
839.3  38239.24  20166.35  52.74
840.5  38296.24  20223.52  52.81
841.7  38381.58  20354.96  53.03
842.9  38485.06  20502.37  53.27
844.0  38543.94  20584.26  53.40
845.2  38626.85  20683.01  53.55
846.4  38724.98  20748.59  53.58
847.5  38888.12  20878.07  53.69
848.7  39002.30  20966.01  53.76
849.9  39141.74  21022.22  53.71
851.0  39173.78  21011.46  53.64
852.2  39245.07  21012.38  53.54
853.3  39202.67  20979.40  53.52
854.5  39188.19  20967.43  53.50
855.6  39170.88  20981.18  53.56
856.8  39193.80  21026.53  53.65
857.9  39192.81  21044.29  53.69
859.1  39326.60  21102.32  53.66
860.2  39300.24  21117.55  53.73
861.4  39344.78  21146.89  53.75
862.5  39384.29  21176.29  53.77
863.7  39467.66  21203.24  53.72
864.8  39454.45  21211.73  53.76
865.9  39398.65  21215.04  53.85
867.1  39448.45  21203.51  53.75
868.2  39441.53  21227.37  53.82
869.3  39465.67  21240.25  53.82
870.5  39438.89  21189.52  53.73
871.6  39473.54  21219.96  53.76
872.7  39541.37  21276.36  53.81
873.9  39548.50  21279.97  53.81
875.0  39546.05  21251.07  53.74
876.1  39583.15  21243.50  53.67
877.2  39616.79  21245.92  53.63
878.3  39601.98  21206.01  53.55
879.4  39662.11  21214.82  53.49
880.5  39702.60  21219.98  53.45
881.7  39698.10  21171.19  53.33
882.8  39775.46  21143.51  53.16
883.9  39785.32  21102.07  53.04
885.0  39766.55  21010.08  52.83
886.1  39735.85  20939.54  52.70
887.2  39664.66  20814.44  52.48
888.3  39567.00  20717.52  52.36
889.4  39535.02  20635.47  52.20
890.5  39459.91  20601.04  52.21
891.6  39428.33  20542.43  52.10
892.7  39429.01  20483.54  51.95
893.8  39492.50  20538.16  52.01
894.9  39505.51  20563.20  52.05
896.0  39527.49  20486.63  51.83
897.0  39487.40  20459.22  51.81
898.1  39490.45  20463.46  51.82
899.2  39536.22  20432.18  51.68
900.3  39503.73  20390.07  51.62
901.4  39454.09  20315.63  51.49
902.4  39461.49  20312.52  51.47
903.5  39418.10  20257.32  51.39
904.6  39431.18  20275.07  51.42
905.7  39454.64  20223.70  51.26
906.7  39397.52  20211.66  51.30
907.8  39514.80  20205.49  51.13
908.9  39443.33  20143.73  51.07
909.9  39411.21  20096.43  50.99
911.0  39357.50  20007.30  50.83
912.1  39280.99  19953.25  50.80
913.1  39233.48  19870.66  50.65
914.2  39173.92  19798.08  50.54
915.2  39170.79  19761.55  50.45
916.3  39094.50  19719.44  50.44
917.3  39076.47  19654.08  50.30
918.4  39031.30  19552.28  50.09
919.4  39022.48  19456.59  49.86
920.5  39026.74  19421.78  49.77
921.5  39018.63  19378.94  49.67
922.6  38959.72  19263.24  49.44
923.6  39026.05  19211.84  49.23
924.7  39022.50  19136.43  49.04
925.7  39030.84  19071.61  48.86
926.7  39009.32  18973.71  48.64
927.8  39032.57  18860.94  48.32
928.8  39142.62  18860.37  48.18
929.9  39330.10  18790.42  47.78
930.9  39447.46  18787.12  47.63
931.9  39602.61  18819.50  47.52
932.9  39864.58  18880.32  47.36
934.0  39909.81  18780.81  47.06
935.0  39942.68  18705.90  46.83
936.0  39929.50  18620.34  46.63
937.0  39883.94  18524.48  46.45
938.1  39848.52  18412.82  46.21
939.1  39753.89  18353.13  46.17
940.1  39867.76  18255.32  45.79
941.1  39995.43  18238.87  45.60
942.1  40229.45  18239.68  45.34
943.1  40393.76  18213.76  45.09
944.1  40552.56  18192.50  44.86
945.2  40570.32  18092.59  44.60
946.2  40685.67  17994.57  44.23
947.2  40740.25  17906.45  43.95
948.2  40874.09  17838.11  43.64
949.2  40954.06  17755.51  43.35
950.2  41026.00  17639.31  43.00
951.2  41012.16  17514.90  42.71
952.2  41170.94  17405.88  42.28
953.2  41257.13  17352.64  42.06
954.2  41395.95  17286.00  41.76
955.2  41401.94  17183.47  41.50
956.2  41391.82  17074.39  41.25
957.2  41524.97  17010.18  40.96
958.2  41486.28  16942.41  40.84
959.2  41625.00  16920.84  40.65
960.1  41647.94  16872.49  40.51
961.1  41725.78  16896.88  40.50
962.1  41752.50  16862.50  40.39
963.1  41720.60  16846.34  40.38
964.1  41837.60  16837.14  40.24
965.1  41932.95  16875.49  40.24
966.1  41961.44  16907.86  40.29
967.0  42058.17  16898.80  40.18
968.0  42094.69  16882.22  40.11
969.0  42115.20  16925.97  40.19
970.0  42092.26  16934.02  40.23
971.0  42266.18  16967.23  40.14
971.9  42275.33  16947.92  40.09
972.9  42388.85  16916.20  39.91
973.9  42492.13  16832.53  39.61
974.9  42580.28  16784.33  39.42
975.8  42630.52  16734.32  39.25
976.8  42806.43  16658.61  38.92
977.8  42848.34  16604.13  38.75
978.8  42868.95  16602.78  38.73
979.7  43050.58  16687.29  38.76
980.7  43264.32  16632.37  38.44
981.7  43347.07  16567.83  38.22
982.6  43545.07  16739.49  38.44
983.6  44003.55  16822.47  38.23
984.6  44377.46  17131.11  38.60
985.5  44900.28  17300.02  38.53
986.5  45688.01  17432.06  38.15
987.5  46285.78  17585.54  37.99
988.4  47161.40  17797.56  37.74
989.4  47812.76  18076.47  37.81
990.4  48753.98  18547.92  38.04
991.3  50274.64  18882.81  37.56
992.3  50864.45  19224.15  37.79
993.2  51610.85  19387.73  37.57
994.2  53891.66  19566.30  36.31
995.2  55394.96  19546.77  35.29
996.1  55625.12  19438.23  34.95
997.1  56348.70  19542.90  34.68
998.0  54473.40  18820.16  34.55
999.0  55283.87  18933.82  34.25
1000.0  55127.21  19000.76  34.47
1000.9  55875.58  19044.91  34.08
1001.9  56355.47  19460.88  34.53
1002.8  54776.67  18231.01  33.28
1003.8  57170.04  18445.70  32.26
1004.8  54763.20  19106.27  34.89
961.5  49984.08  17338.13  34.69
965.5  48959.90  17371.95  35.48
969.5  47367.08  17034.97  35.96
973.4  45664.01  16363.31  35.83
977.4  44063.24  15770.62  35.79
981.4  43484.76  15534.37  35.72
985.3  43466.28  15467.79  35.59
989.3  43739.41  15627.08  35.73
993.3  44088.36  15857.99  35.97
997.2  44246.85  16015.65  36.20
1001.2  44240.69  16168.53  36.55
1005.2  44147.66  16327.02  36.98
1009.1  44170.72  16549.05  37.47
1013.1  44298.35  16835.21  38.00
1017.1  44409.64  17119.47  38.55
1021.0  44418.65  17348.06  39.06
1025.0  44431.92  17543.64  39.48
1029.0  44310.95  17685.39  39.91
1032.9  44196.36  17837.73  40.36
1036.9  44214.81  18038.07  40.80
1040.9  44317.48  18297.38  41.29
1044.8  44471.57  18599.32  41.82
1048.8  44586.22  18873.54  42.33
1052.7  44660.98  19103.91  42.78
1056.7  44664.90  19266.75  43.14
1060.7  44652.74  19388.09  43.42
1064.6  44643.90  19484.81  43.64
1068.6  44545.19  19504.07  43.78
1072.5  44448.63  19485.27  43.84
1076.5  44390.31  19453.84  43.82
1080.4  44363.13  19404.99  43.74
1084.4  44428.99  19362.55  43.58
1088.3  44526.89  19291.90  43.33
1092.3  44515.11  19150.38  43.02
1096.2  44485.25  19010.22  42.73
1100.2  44489.30  18881.27  42.44
1104.1  44387.15  18687.75  42.10
1108.1  44344.78  18506.97  41.73
1112.0  44255.25  18272.15  41.29
1116.0  44078.91  17960.13  40.75
1119.9  43920.46  17620.74  40.12
1123.9  43980.05  17299.13  39.33
1127.8  43933.44  16824.32  38.30
1131.8  43891.20  16217.90  36.95
1135.7  43904.71  15499.36  35.30
1139.6  43873.24  14701.50  33.51
1143.6  43814.30  13947.88  31.83
1147.5  43764.96  13319.34  30.43
1151.4  43600.54  12816.56  29.40
1155.4  43567.43  12514.44  28.72
1159.3  43548.37  12332.10  28.32
1163.2  43379.84  12175.67  28.07
1167.2  43333.14  12096.18  27.91
1171.1  43320.14  12040.77  27.79
1175.0  43247.45  11979.36  27.70
1179.0  43203.54  11925.20  27.60
1182.9  43281.26  11888.71  27.47
1186.8  43262.79  11833.90  27.35
1190.7  43059.97  11730.97  27.24
1194.7  42822.73  11634.04  27.17
1198.6  42602.18  11573.10  27.17
1202.5  42456.57  11544.42  27.19
1206.4  42335.53  11543.66  27.27
1210.3  42230.32  11566.68  27.39
1214.2  42126.94  11589.29  27.51
1218.2  41984.08  11606.90  27.65
1222.1  41854.50  11656.82  27.85
1226.0  41760.57  11721.14  28.07
1229.9  41673.90  11772.36  28.25
1233.8  41576.55  11811.18  28.41
1237.7  41528.30  11855.38  28.55
1241.6  41457.25  11891.10  28.68
1245.5  41309.15  11903.75  28.82
1249.4  41175.26  11909.12  28.92
1253.3  41058.30  11916.57  29.02
1257.2  40978.33  11938.77  29.13
1261.1  40873.57  11940.05  29.21
1265.0  40757.89  11920.19  29.25
1268.9  40587.74  11857.58  29.21
1272.8  40626.75  11839.85  29.14
1276.7  40780.33  11849.80  29.06
1280.6  40842.56  11809.59  28.91
1284.5  40748.73  11700.08  28.71
1288.4  40697.88  11586.10  28.47
1292.3  40562.50  11431.75  28.18
1296.2  40411.46  11245.01  27.83
1300.1  40239.63  11028.90  27.41
1303.9  40009.73  10777.27  26.94
1307.8  39785.54  10506.00  26.41
1311.7  39554.21  10212.86  25.82
1315.6  39326.35  9906.49  25.19
1319.5  39086.11  9575.99  24.50
1323.3  38870.69  9235.49  23.76
1327.2  38681.53  8905.37  23.02
1331.1  38474.56  8557.88  22.24
1335.0  38203.08  8204.68  21.48
1338.8  38009.09  7894.12  20.77
1342.7  37876.27  7608.32  20.09
1346.5  37598.34  7291.73  19.39
1350.4  37400.07  6987.73  18.68
1354.3  37094.65  6672.83  17.99
1358.1  36731.71  6375.43  17.36
1362.0  36487.36  6132.19  16.81
1365.8  36370.47  5923.38  16.29
