/*** Spectra Vista SIG Data ***/
name= GT.sig
comm= Averaged Ref/Tar of files: GT1,GT2,GT3
data=
346.4  468.20  157.77  33.70
347.9  473.76  160.33  33.84
349.5  521.04  161.93  31.08
351.1  558.48  157.77  28.25
352.6  585.06  165.51  28.29
354.2  625.05  167.88  26.86
355.7  673.50  184.88  27.45
357.3  724.71  192.33  26.54
358.8  751.43  191.99  25.55
360.4  798.47  197.10  24.68
361.9  821.87  202.45  24.63
363.5  851.78  202.79  23.81
365.1  887.68  202.85  22.85
366.6  918.37  200.70  21.85
368.2  973.68  198.99  20.44
369.7  1008.89  198.62  19.69
371.3  1073.36  202.93  18.91
372.8  1148.72  213.37  18.57
374.4  1191.49  211.93  17.79
375.9  1247.87  214.71  17.21
377.4  1278.23  213.26  16.68
379.0  1330.29  212.49  15.97
380.5  1360.26  215.22  15.82
382.1  1412.49  212.66  15.06
383.6  1460.03  210.64  14.43
385.2  1529.00  213.77  13.98
386.7  1608.26  214.34  13.33
388.3  1679.42  224.10  13.34
389.8  1759.55  229.30  13.03
391.3  1843.67  233.57  12.67
392.9  1897.62  242.58  12.78
394.4  1955.58  254.91  13.04
395.9  2019.02  272.34  13.49
397.5  2131.80  282.74  13.26
399.0  2240.25  288.71  12.89
400.6  2303.62  272.91  11.85
402.1  2342.64  270.38  11.54
403.6  2375.92  264.05  11.11
405.1  2451.81  265.90  10.85
406.7  2542.40  270.29  10.63
408.2  2650.73  278.58  10.51
409.7  2746.24  293.89  10.70
411.3  2843.51  297.74  10.47
412.8  2936.43  311.73  10.62
414.3  3034.90  324.30  10.69
415.8  3152.50  337.67  10.71
417.4  3253.58  345.68  10.62
418.9  3339.60  355.05  10.63
420.4  3424.70  361.58  10.56
421.9  3487.22  363.89  10.43
423.5  3546.87  366.75  10.34
425.0  3613.98  365.82  10.12
426.5  3695.85  372.60  10.08
428.0  3801.23  374.31  9.85
429.5  3926.30  381.57  9.72
431.1  4071.24  390.35  9.59
432.6  4225.66  403.53  9.55
434.1  4373.60  413.36  9.45
435.6  4514.36  429.25  9.51
437.1  4642.95  436.80  9.41
438.6  4769.06  452.28  9.48
440.1  4906.69  462.25  9.42
441.6  5042.30  476.86  9.46
443.1  5179.95  491.74  9.49
444.7  5318.34  510.74  9.60
446.2  5433.01  528.36  9.72
447.7  5551.25  547.43  9.86
449.2  5676.48  565.70  9.97
450.7  5788.64  584.55  10.10
452.2  5916.62  593.50  10.03
453.7  6028.91  604.69  10.03
455.2  6201.73  623.58  10.05
456.7  6390.56  644.86  10.09
458.2  6607.30  665.74  10.08
459.7  6823.25  686.76  10.06
461.2  7031.76  707.77  10.07
462.7  7219.07  725.49  10.05
464.2  7396.86  744.57  10.07
465.7  7583.22  763.20  10.06
467.2  7742.35  780.14  10.08
468.7  7912.00  804.07  10.16
470.2  8015.91  824.48  10.29
471.7  8177.13  853.81  10.44
473.2  8446.52  886.15  10.49
474.6  8688.33  895.85  10.31
476.1  8747.12  888.00  10.15
477.6  8779.39  892.16  10.16
479.1  8829.54  899.58  10.19
480.6  8916.06  908.62  10.19
482.1  9046.91  921.20  10.18
483.6  9204.08  944.85  10.27
485.1  9394.00  964.12  10.26
486.6  9626.34  996.13  10.35
488.0  9867.00  1027.71  10.42
489.5  10130.90  1063.43  10.50
491.0  10387.73  1104.51  10.63
492.5  10649.88  1151.33  10.81
494.0  10928.34  1202.11  11.00
495.4  11158.95  1259.01  11.28
496.9  11406.10  1318.58  11.56
498.4  11649.48  1383.11  11.87
499.9  11878.23  1458.16  12.28
501.4  12101.58  1536.65  12.70
502.8  12308.24  1626.39  13.21
504.3  12497.40  1718.34  13.75
505.8  12681.02  1822.57  14.37
507.2  12808.72  1928.24  15.05
508.7  12896.48  2037.33  15.80
510.2  12964.78  2155.84  16.63
511.6  13008.39  2277.08  17.50
513.1  13093.74  2411.56  18.42
514.6  13195.49  2553.34  19.35
516.0  13281.41  2701.26  20.34
517.5  13429.99  2870.71  21.38
519.0  13603.01  3048.47  22.41
520.5  13772.72  3230.80  23.46
521.9  13993.28  3427.91  24.50
523.4  14243.35  3631.23  25.49
524.8  14493.24  3833.16  26.45
526.3  14778.04  4038.92  27.33
527.8  15074.01  4239.02  28.12
529.2  15339.71  4426.96  28.86
530.7  15629.94  4617.15  29.54
532.1  15903.48  4789.72  30.12
533.6  16214.37  4966.12  30.63
535.0  16534.98  5142.81  31.10
536.5  16856.03  5305.89  31.48
538.0  17178.24  5470.93  31.85
539.4  17501.02  5621.54  32.12
540.9  17879.62  5792.09  32.39
542.3  18237.67  5943.22  32.59
543.8  18504.51  6065.21  32.78
545.2  18600.74  6131.83  32.97
546.6  18637.00  6183.35  33.18
548.1  18690.38  6239.36  33.38
549.5  18745.60  6289.98  33.55
551.0  18790.92  6332.31  33.70
552.4  18868.34  6378.63  33.81
553.9  18922.09  6406.23  33.86
555.3  18999.63  6428.63  33.84
556.8  19143.87  6462.76  33.76
558.2  19276.31  6481.07  33.62
559.6  19441.66  6502.42  33.45
561.1  19660.88  6536.13  33.24
562.5  19883.82  6562.19  33.00
564.0  20177.05  6597.51  32.70
565.4  20444.07  6613.62  32.35
566.8  20774.24  6641.73  31.97
568.3  21077.79  6647.27  31.54
569.7  21403.31  6648.72  31.06
571.1  21706.83  6633.46  30.56
572.6  22010.94  6619.05  30.07
574.0  22299.75  6598.85  29.59
575.4  22570.31  6576.07  29.14
576.9  22820.49  6551.16  28.71
578.3  23040.88  6524.14  28.32
579.7  23243.15  6499.24  27.96
581.1  23410.31  6462.15  27.60
582.6  23592.46  6438.16  27.29
584.0  23735.52  6408.34  27.00
585.4  23971.18  6402.88  26.71
586.8  24286.87  6419.29  26.43
588.3  24642.54  6449.27  26.17
589.7  24935.04  6473.14  25.96
591.1  25126.37  6469.38  25.75
592.5  25213.30  6450.09  25.58
594.0  25248.06  6418.91  25.42
595.4  25246.58  6386.89  25.30
596.8  25248.80  6360.07  25.19
598.2  25256.70  6333.94  25.08
599.6  25254.00  6303.56  24.96
601.0  25321.45  6288.77  24.84
602.4  25392.58  6266.68  24.68
603.9  25508.50  6249.77  24.50
605.3  25652.08  6230.30  24.29
606.7  25770.60  6202.56  24.07
608.1  26003.60  6186.15  23.79
609.5  26249.20  6169.40  23.50
610.9  26543.12  6158.96  23.20
612.3  26820.62  6140.78  22.90
613.7  27191.20  6136.28  22.57
615.1  27470.34  6109.13  22.24
616.5  27748.85  6083.27  21.92
617.9  28163.94  6094.52  21.64
619.3  28559.37  6109.01  21.39
620.7  29021.55  6143.03  21.17
622.1  29524.34  6195.81  20.99
623.5  30070.32  6275.91  20.87
624.9  30686.25  6376.31  20.78
626.3  31117.56  6449.29  20.73
627.7  30854.43  6391.69  20.72
629.1  30617.27  6339.45  20.71
630.5  30534.25  6331.71  20.74
631.9  30583.88  6344.06  20.74
633.3  30636.73  6329.31  20.66
634.7  30802.72  6316.37  20.51
636.1  30887.16  6250.19  20.24
637.5  30991.21  6161.64  19.88
638.9  31137.59  6068.09  19.49
640.2  31275.86  5942.89  19.00
641.6  31334.94  5789.78  18.48
643.0  31307.82  5634.34  18.00
644.4  31297.86  5464.75  17.46
645.8  31223.60  5247.62  16.81
647.2  31327.01  5058.72  16.15
648.5  31378.61  4872.66  15.53
649.9  31215.99  4692.71  15.03
651.3  31061.55  4547.08  14.64
652.7  30880.50  4419.75  14.31
654.1  30705.72  4344.52  14.15
655.5  30448.41  4279.75  14.06
656.8  30219.54  4197.61  13.89
658.2  30347.48  4142.95  13.65
659.6  30667.01  4102.33  13.38
660.9  30915.41  4033.86  13.05
662.3  31175.28  3964.48  12.72
663.7  31418.10  3897.18  12.40
665.0  31622.76  3824.51  12.09
666.4  31821.65  3757.06  11.81
667.8  32088.83  3710.44  11.56
669.1  32304.87  3670.23  11.36
670.5  32567.66  3652.06  11.21
671.9  32723.64  3635.55  11.11
673.2  32957.22  3653.80  11.09
674.6  33165.65  3679.82  11.10
676.0  33416.99  3730.57  11.16
677.3  33670.84  3801.87  11.29
678.7  33959.63  3901.08  11.49
680.0  34360.72  4044.51  11.77
681.4  34770.40  4235.50  12.18
682.8  35166.95  4483.65  12.75
684.1  35575.02  4798.09  13.49
685.5  35948.61  5196.85  14.46
686.8  36307.14  5691.29  15.68
688.2  36654.12  6287.36  17.15
689.5  36792.82  6960.90  18.92
690.9  36894.22  7732.93  20.96
692.2  37000.50  8583.98  23.20
693.6  37086.31  9515.78  25.66
694.9  37102.94  10482.42  28.25
696.2  37172.03  11513.08  30.97
697.6  37238.58  12571.87  33.76
698.9  37321.68  13644.58  36.56
700.3  37412.04  14719.80  39.35
701.6  37521.51  15794.31  42.09
703.0  37648.39  16847.23  44.75
704.3  37727.46  17844.46  47.30
705.6  37779.39  18784.89  49.72
707.0  37853.11  19705.88  52.06
708.3  37804.36  20522.12  54.29
709.6  37779.31  21291.48  56.36
711.0  37700.05  22006.00  58.37
712.3  37603.29  22661.00  60.26
713.6  37599.66  23347.03  62.09
714.9  37564.50  23969.89  63.81
716.3  37606.65  24613.02  65.45
717.6  37655.10  25238.75  67.03
718.9  37643.31  25780.42  68.49
720.2  37519.65  26201.95  69.84
721.6  37437.79  26615.49  71.09
722.9  37295.06  26964.37  72.30
724.2  37099.21  27204.92  73.33
725.5  36957.59  27479.96  74.36
726.8  36833.83  27715.35  75.24
728.1  36764.75  27960.64  76.05
729.5  36694.32  28171.57  76.77
730.8  36660.60  28367.89  77.38
732.1  36590.42  28495.47  77.88
733.4  36549.03  28649.93  78.39
734.7  36509.02  28787.10  78.85
736.0  36510.50  28945.54  79.28
737.3  36452.29  29040.69  79.67
738.6  36538.42  29252.29  80.06
739.9  36706.85  29514.65  80.41
741.2  36841.35  29733.07  80.71
742.5  37078.82  30043.02  81.02
743.8  37494.19  30483.82  81.30
745.1  38118.44  31076.50  81.53
746.4  38876.11  31776.11  81.74
747.7  39639.96  32523.05  82.05
749.0  40400.48  33270.53  82.35
750.3  40850.46  33784.23  82.70
751.6  40764.46  33851.41  83.04
752.9  40356.61  33614.16  83.29
754.2  39863.99  33301.04  83.54
755.4  39350.05  32923.79  83.67
756.7  39155.03  32823.90  83.83
758.0  39142.09  32854.29  83.94
759.3  39351.46  33080.35  84.06
760.6  39645.76  33407.84  84.27
761.9  39928.94  33704.54  84.41
763.1  40078.15  33899.45  84.58
764.4  40287.45  34145.59  84.75
765.7  40433.25  34311.66  84.86
767.0  40515.07  34441.77  85.01
768.2  40595.52  34573.73  85.17
769.5  40644.33  34663.93  85.29
770.8  40787.04  34852.86  85.45
772.0  40799.41  34924.99  85.60
773.3  40833.29  35033.15  85.80
774.6  40907.98  35171.41  85.98
775.8  40955.53  35302.68  86.20
777.1  40964.33  35364.90  86.33
778.4  40867.87  35356.04  86.51
779.6  40816.98  35362.27  86.64
780.9  40688.00  35331.87  86.84
782.1  40484.72  35227.94  87.02
783.4  40464.32  35278.60  87.18
784.6  40463.12  35332.54  87.32
785.9  40670.74  35595.41  87.52
787.1  41171.80  36093.03  87.66
788.4  41528.97  36565.34  88.05
789.6  41482.13  36685.95  88.44
790.9  41134.16  36477.35  88.68
792.1  40655.28  36139.33  88.89
793.4  40180.32  35793.75  89.08
794.6  39846.60  35577.77  89.29
795.8  39587.54  35414.34  89.46
797.1  39290.10  35226.43  89.66
798.3  39054.26  35099.23  89.87
799.5  38943.25  35047.42  90.00
800.8  38778.22  34972.68  90.19
802.0  38618.88  34896.51  90.36
803.2  38465.20  34801.14  90.47
804.5  38332.71  34769.88  90.71
805.7  38219.65  34718.18  90.84
806.9  38073.35  34646.57  91.00
808.1  37984.05  34606.33  91.11
809.4  37906.28  34583.16  91.23
810.6  37824.15  34537.38  91.31
811.8  37796.29  34537.92  91.38
813.0  37827.58  34561.93  91.37
814.2  37840.50  34600.93  91.44
815.4  37955.24  34717.73  91.47
816.6  38027.91  34791.10  91.49
817.9  38102.35  34886.19  91.56
819.1  38072.96  34846.50  91.53
820.3  37949.69  34755.83  91.58
821.5  37894.61  34672.14  91.50
822.7  37866.54  34616.03  91.42
823.9  37906.28  34613.83  91.31
825.1  37943.15  34598.41  91.18
826.3  38020.73  34585.69  90.97
827.5  38108.05  34570.85  90.72
828.7  38176.32  34568.60  90.55
829.9  38262.68  34542.19  90.28
831.0  38386.63  34565.12  90.04
832.2  38533.16  34590.17  89.77
833.4  38634.36  34628.09  89.63
834.6  38746.88  34663.59  89.46
835.8  38872.58  34706.70  89.28
837.0  39026.76  34774.31  89.10
838.1  39200.00  34897.97  89.03
839.3  39334.99  34978.29  88.92
840.5  39499.16  35068.57  88.78
841.7  39675.29  35197.10  88.71
842.9  39834.34  35307.64  88.64
844.0  40002.80  35420.86  88.55
845.2  40188.33  35535.44  88.42
846.4  40315.24  35637.76  88.40
847.5  40575.08  35838.94  88.33
848.7  40794.29  36020.72  88.30
849.9  41043.27  36214.03  88.23
851.0  41176.72  36315.90  88.20
852.2  41283.01  36409.43  88.19
853.3  41336.03  36431.69  88.14
854.5  41385.60  36440.33  88.05
855.6  41408.01  36456.17  88.04
856.8  41491.09  36484.04  87.93
857.9  41535.42  36487.35  87.85
859.1  41657.80  36600.05  87.86
860.2  41711.76  36608.63  87.77
861.4  41789.90  36644.96  87.69
862.5  41857.52  36667.62  87.60
863.7  41978.22  36756.29  87.56
864.8  42001.40  36765.63  87.53
865.9  42003.19  36713.15  87.41
867.1  42077.89  36744.37  87.32
868.2  42118.25  36740.02  87.23
869.3  42153.63  36747.14  87.17
870.5  42092.46  36677.07  87.13
871.6  42122.53  36661.50  87.04
872.7  42223.14  36706.85  86.94
873.9  42262.83  36707.54  86.86
875.0  42247.20  36653.95  86.76
876.1  42225.11  36615.63  86.72
877.2  42279.84  36592.92  86.55
878.3  42302.12  36545.81  86.39
879.4  42284.06  36544.71  86.43
880.5  42343.92  36541.85  86.30
881.7  42326.05  36489.92  86.21
882.8  42351.34  36509.80  86.21
883.9  42430.09  36512.94  86.05
885.0  42357.32  36456.81  86.07
886.1  42357.47  36414.54  85.97
887.2  42241.92  36275.31  85.88
888.3  42147.85  36183.72  85.85
889.4  42045.32  36053.58  85.75
890.5  41945.29  35947.06  85.70
891.6  41864.40  35838.88  85.61
892.7  41844.69  35778.94  85.50
893.8  41881.85  35747.96  85.35
894.9  41879.31  35691.00  85.22
896.0  41812.69  35637.46  85.23
897.0  41850.92  35619.91  85.11
898.1  41821.61  35559.05  85.03
899.2  41852.54  35523.44  84.88
900.3  41747.94  35411.88  84.82
901.4  41622.41  35304.10  84.82
902.4  41658.53  35273.54  84.67
903.5  41604.82  35162.86  84.52
904.6  41550.72  35127.16  84.54
905.7  41565.54  35086.68  84.41
906.7  41536.49  35005.56  84.28
907.8  41558.34  34973.18  84.15
908.9  41493.73  34856.67  84.00
909.9  41451.58  34773.05  83.89
911.0  41358.23  34647.93  83.78
912.1  41297.17  34523.80  83.60
913.1  41189.72  34410.39  83.54
914.2  41099.85  34218.44  83.26
915.2  41068.89  34130.84  83.11
916.3  41034.15  34055.10  82.99
917.3  40975.74  33938.68  82.83
918.4  40862.80  33727.75  82.54
919.4  40836.29  33593.01  82.26
920.5  40782.84  33472.30  82.07
921.5  40833.45  33372.87  81.73
922.6  40729.18  33210.73  81.54
923.6  40739.49  33072.63  81.18
924.7  40774.75  32931.55  80.76
925.7  40746.72  32776.93  80.44
926.7  40808.40  32643.06  79.99
927.8  40839.01  32537.48  79.67
928.8  40966.59  32450.26  79.21
929.9  41048.46  32375.64  78.87
930.9  41217.18  32320.28  78.41
931.9  41378.61  32285.23  78.02
932.9  41679.25  32317.03  77.54
934.0  41702.58  32187.19  77.18
935.0  41757.18  31980.06  76.59
936.0  41670.71  31747.76  76.19
937.0  41632.50  31520.56  75.71
938.1  41580.55  31281.57  75.23
939.1  41508.45  31092.48  74.91
940.1  41591.64  30911.68  74.32
941.1  41779.29  30885.43  73.93
942.1  41991.60  30830.91  73.42
943.1  42156.63  30735.20  72.91
944.1  42391.18  30678.00  72.37
945.2  42445.20  30493.71  71.84
946.2  42493.04  30347.15  71.42
947.2  42572.63  30145.47  70.81
948.2  42750.54  29990.19  70.15
949.2  42846.38  29833.62  69.63
950.2  42880.60  29586.96  69.00
951.2  42968.52  29414.42  68.46
952.2  43001.40  29218.68  67.95
953.2  43164.71  29093.42  67.40
954.2  43310.48  28923.90  66.78
955.2  43368.34  28735.56  66.26
956.2  43301.73  28520.28  65.86
957.2  43392.87  28379.92  65.40
958.2  43492.10  28247.85  64.95
959.2  43506.45  28187.90  64.79
960.1  43588.22  28085.27  64.43
961.1  43692.83  28041.74  64.18
962.1  43658.44  27962.06  64.05
963.1  43782.00  27896.43  63.72
964.1  43817.42  27919.75  63.72
965.1  43908.74  27944.43  63.64
966.1  44007.38  27918.56  63.44
967.0  44141.86  27927.52  63.27
968.0  44131.86  27941.17  63.31
969.0  44255.20  27946.97  63.15
970.0  44255.36  27961.44  63.18
971.0  44316.83  27942.77  63.05
971.9  44400.90  27970.21  62.99
972.9  44577.14  28081.39  63.00
973.9  44494.78  28077.33  63.10
974.9  44573.29  28164.21  63.19
975.8  44702.44  28206.53  63.10
976.8  44666.28  28244.65  63.23
977.8  44950.93  28372.29  63.12
978.8  44877.90  28474.88  63.45
979.7  45104.10  28510.93  63.21
980.7  45212.81  28592.36  63.24
981.7  45433.99  28777.76  63.34
982.6  45657.51  28959.63  63.43
983.6  46147.45  29351.78  63.60
984.6  46551.05  29613.15  63.61
985.5  47031.84  30130.63  64.06
986.5  47664.14  30606.22  64.21
987.5  48852.12  31239.08  63.95
988.4  49722.20  32184.28  64.73
989.4  51183.38  32944.62  64.37
990.4  52549.20  34152.12  64.99
991.3  54023.93  35379.71  65.49
992.3  54777.10  36426.77  66.50
993.2  55874.36  37690.88  67.46
994.2  57686.85  38660.31  67.02
995.2  57633.14  39699.72  68.88
996.1  59292.71  40710.25  68.66
997.1  59931.56  41061.81  68.51
998.0  60640.20  40700.88  67.12
999.0  59258.53  41697.77  70.37
1000.0  60377.42  42114.19  69.75
1000.9  59810.48  42169.01  70.50
1001.9  59598.95  42070.64  70.59
1002.8  60212.52  41187.04  68.40
1003.8  59788.51  41357.36  69.17
1004.8  59326.80  42395.84  71.46
961.5  55398.21  30390.06  54.86
965.5  54418.85  30308.51  55.69
969.5  52458.23  29730.63  56.67
973.4  50487.36  29015.21  57.47
977.4  48611.32  28509.19  58.65
981.4  47578.80  28466.93  59.83
985.3  47203.20  28619.13  60.63
989.3  47137.31  28910.10  61.33
993.3  47133.16  29248.03  62.05
997.2  47029.21  29524.74  62.78
1001.2  46955.35  29847.48  63.57
1005.2  46914.32  30202.12  64.38
1009.1  47038.13  30659.23  65.18
1013.1  47236.75  31208.74  66.07
1017.1  47375.30  31756.96  67.03
1021.0  47429.61  32234.64  67.96
1025.0  47461.87  32702.55  68.90
1029.0  47354.18  33085.65  69.87
1032.9  47271.77  33470.62  70.80
1036.9  47308.70  33924.55  71.71
1040.9  47476.08  34446.44  72.56
1044.8  47747.63  35002.95  73.31
1048.8  47970.59  35484.29  73.97
1052.7  48104.60  35883.12  74.59
1056.7  48183.46  36175.14  75.08
1060.7  48250.82  36388.40  75.42
1064.6  48272.17  36550.77  75.72
1068.6  48190.54  36565.77  75.88
1072.5  48116.11  36510.63  75.88
1076.5  48076.67  36447.18  75.81
1080.4  48048.88  36344.17  75.64
1084.4  48150.59  36246.87  75.28
1088.3  48279.53  36115.69  74.81
1092.3  48252.92  35845.11  74.29
1096.2  48221.83  35519.69  73.66
1100.2  48245.69  35222.42  73.01
1104.1  48124.97  34812.65  72.34
1108.1  48059.38  34427.06  71.63
1112.0  47955.87  34001.12  70.90
1116.0  47754.46  33463.28  70.07
1119.9  47569.76  32865.86  69.09
1123.9  47623.80  32281.14  67.78
1127.8  47592.96  31397.12  65.97
1131.8  47556.42  30270.45  63.65
1135.7  47568.82  28995.16  60.95
1139.6  47554.30  27602.27  58.04
1143.6  47510.71  26265.47  55.28
1147.5  47481.98  25128.63  52.92
1151.4  47337.52  24173.45  51.07
1155.4  47322.86  23570.27  49.81
1159.3  47329.81  23190.41  49.00
1163.2  47159.49  22842.82  48.44
1167.2  47113.86  22654.82  48.09
1171.1  47117.13  22531.89  47.82
1175.0  47022.16  22392.00  47.62
1179.0  46962.63  22279.19  47.44
1182.9  47045.30  22223.29  47.24
1186.8  47019.62  22126.27  47.06
1190.7  46784.64  21946.55  46.91
1194.7  46508.35  21767.18  46.80
1198.6  46264.68  21638.93  46.77
1202.5  46100.54  21567.93  46.78
1206.4  45962.62  21532.19  46.85
1210.3  45829.98  21534.27  46.99
1214.2  45707.13  21563.06  47.18
1218.2  45554.16  21598.68  47.41
1222.1  45384.95  21649.94  47.70
1226.0  45257.55  21716.36  47.98
1229.9  45156.00  21792.54  48.26
1233.8  45033.17  21849.16  48.52
1237.7  44950.68  21915.74  48.76
1241.6  44841.64  21963.98  48.98
1245.5  44683.61  21964.69  49.16
1249.4  44538.65  21969.33  49.33
1253.3  44401.40  21970.60  49.48
1257.2  44324.52  21972.44  49.57
1261.1  44209.48  21932.21  49.61
1265.0  44086.55  21861.73  49.59
1268.9  43910.05  21739.37  49.51
1272.8  43969.80  21713.20  49.38
1276.7  44155.69  21733.00  49.22
1280.6  44249.88  21668.37  48.97
1284.5  44188.89  21486.48  48.62
1288.4  44167.03  21299.92  48.23
1292.3  44060.50  21037.50  47.75
1296.2  43934.23  20727.72  47.18
1300.1  43787.98  20369.76  46.52
1303.9  43564.57  19947.60  45.79
1307.8  43339.22  19484.27  44.96
1311.7  43109.06  18985.99  44.04
1315.6  42877.90  18463.92  43.06
1319.5  42633.84  17905.77  42.00
1323.3  42417.44  17350.03  40.90
1327.2  42218.70  16797.39  39.79
1331.1  42002.86  16241.74  38.67
1335.0  41739.72  15681.56  37.57
1338.8  41543.11  15168.28  36.51
1342.7  41389.31  14701.98  35.52
1346.5  41042.00  14194.56  34.59
1350.4  40741.74  13736.89  33.72
1354.3  40332.24  13264.77  32.89
