/*** Spectra Vista SIG Data ***/
name= AB.sig
comm= Averaged Ref/Tar of files: AB1,AB2,AB3
data=
346.4  509.60  62.85  12.33
347.9  549.06  60.45  11.01
349.5  608.40  61.78  10.15
351.1  655.20  63.65  9.71
352.6  708.40  64.10  9.05
354.2  752.68  71.34  9.48
355.7  818.30  70.94  8.67
357.3  873.81  73.74  8.44
358.8  891.23  71.30  8.00
360.4  967.31  79.03  8.17
361.9  1009.93  75.45  7.47
363.5  1059.53  73.41  6.93
365.1  1102.67  76.98  6.98
366.6  1156.59  75.72  6.55
368.2  1218.77  78.79  6.46
369.7  1306.00  78.36  6.00
371.3  1379.56  77.92  5.65
372.8  1457.48  83.88  5.76
374.4  1528.58  83.22  5.44
375.9  1575.56  87.16  5.53
377.4  1632.76  83.70  5.13
379.0  1683.54  85.72  5.09
380.5  1741.87  89.04  5.11
382.1  1805.51  84.32  4.67
383.6  1862.60  83.35  4.47
385.2  1949.75  86.53  4.44
386.7  2036.04  90.43  4.44
388.3  2135.96  95.84  4.49
389.8  2212.47  95.16  4.30
391.3  2314.34  99.52  4.30
392.9  2392.65  103.56  4.33
394.4  2474.90  105.05  4.24
395.9  2552.82  117.23  4.59
397.5  2664.75  117.36  4.40
399.0  2774.82  115.16  4.15
400.6  2852.64  114.14  4.00
402.1  2910.24  114.21  3.92
403.6  2965.71  110.92  3.74
405.1  3036.77  117.60  3.87
406.7  3133.76  118.12  3.77
408.2  3234.33  122.36  3.78
409.7  3330.88  130.37  3.91
411.3  3437.91  130.05  3.78
412.8  3528.93  137.14  3.89
414.3  3634.54  140.98  3.88
415.8  3740.00  150.67  4.03
417.4  3868.37  152.98  3.95
418.9  3954.39  157.20  3.98
420.4  4037.85  161.68  4.00
421.9  4106.74  161.82  3.94
423.5  4196.00  163.92  3.91
425.0  4263.51  166.91  3.91
426.5  4364.50  173.43  3.97
428.0  4488.82  172.14  3.83
429.5  4615.58  179.33  3.89
431.1  4756.23  185.76  3.91
432.6  4917.76  192.12  3.91
434.1  5064.68  198.15  3.91
435.6  5199.35  202.01  3.89
437.1  5333.25  212.55  3.99
438.6  5454.84  213.93  3.92
440.1  5584.70  221.38  3.96
441.6  5717.14  227.75  3.98
443.1  5852.25  230.99  3.95
444.7  5982.11  237.56  3.97
446.2  6104.50  246.28  4.03
447.7  6213.60  248.98  4.01
449.2  6315.84  250.70  3.97
450.7  6414.72  251.13  3.91
452.2  6543.45  254.53  3.89
453.7  6682.65  260.63  3.90
455.2  6842.54  266.14  3.89
456.7  7029.44  275.03  3.91
458.2  7231.16  282.51  3.91
459.7  7428.75  294.00  3.96
461.2  7633.63  304.28  3.99
462.7  7815.14  315.51  4.04
464.2  8000.76  327.21  4.09
465.7  8191.53  336.32  4.11
467.2  8352.58  344.19  4.12
468.7  8552.00  356.00  4.16
470.2  8711.17  369.08  4.24
471.7  8854.00  376.20  4.25
473.2  9050.37  369.77  4.09
474.6  9252.88  368.87  3.99
476.1  9378.88  367.33  3.92
477.6  9464.51  372.45  3.94
479.1  9567.20  375.12  3.92
480.6  9658.16  376.60  3.90
482.1  9797.74  381.52  3.89
483.6  9963.22  388.84  3.90
485.1  10140.49  397.68  3.92
486.6  10356.19  409.24  3.95
488.0  10562.50  423.37  4.01
489.5  10784.97  442.51  4.10
491.0  10998.86  462.04  4.20
492.5  11224.98  483.30  4.31
494.0  11462.99  509.79  4.45
495.4  11663.85  534.05  4.58
496.9  11870.36  559.79  4.72
498.4  12074.30  590.12  4.89
499.9  12278.41  620.70  5.06
501.4  12476.75  652.05  5.23
502.8  12664.51  681.59  5.38
504.3  12846.60  715.08  5.57
505.8  13033.73  748.06  5.74
507.2  13172.68  781.98  5.94
508.7  13289.99  811.90  6.11
510.2  13412.81  840.35  6.27
511.6  13494.72  868.74  6.44
513.1  13630.43  895.48  6.57
514.6  13795.53  926.43  6.72
516.0  13946.28  958.03  6.87
517.5  14135.83  994.52  7.04
519.0  14365.19  1038.10  7.23
520.5  14579.60  1078.25  7.40
521.9  14828.55  1124.77  7.59
523.4  15093.49  1172.65  7.77
524.8  15349.14  1223.73  7.97
526.3  15633.70  1276.67  8.17
527.8  15915.89  1331.14  8.36
529.2  16178.21  1380.08  8.53
530.7  16455.24  1431.62  8.70
532.1  16698.15  1481.62  8.87
533.6  16994.07  1530.93  9.01
535.0  17295.55  1586.28  9.17
536.5  17581.25  1636.72  9.31
538.0  17895.84  1693.66  9.46
539.4  18160.64  1748.12  9.63
540.9  18488.86  1796.02  9.71
542.3  18738.28  1837.06  9.80
543.8  18940.29  1869.68  9.87
545.2  19020.35  1895.53  9.97
546.6  19057.19  1918.63  10.07
548.1  19121.11  1939.88  10.15
549.5  19166.91  1954.64  10.20
551.0  19217.70  1968.08  10.24
552.4  19311.21  1986.28  10.29
553.9  19371.38  2000.15  10.33
555.3  19461.20  2019.07  10.37
556.8  19596.88  2041.28  10.42
558.2  19743.75  2065.05  10.46
559.6  19902.71  2095.26  10.53
561.1  20117.50  2133.30  10.60
562.5  20332.52  2175.98  10.70
564.0  20611.34  2225.87  10.80
565.4  20865.50  2275.20  10.90
566.8  21177.73  2334.80  11.02
568.3  21463.05  2392.72  11.15
569.7  21776.78  2453.30  11.27
571.1  22080.65  2512.01  11.38
572.6  22373.82  2570.29  11.49
574.0  22675.95  2630.10  11.60
575.4  22958.44  2687.29  11.71
576.9  23231.09  2746.13  11.82
578.3  23477.03  2803.40  11.94
579.7  23721.74  2862.76  12.07
581.1  23920.49  2919.10  12.20
582.6  24132.47  2976.99  12.34
584.0  24305.80  3030.89  12.47
585.4  24549.94  3090.46  12.59
586.8  24845.17  3155.23  12.70
588.3  25201.80  3219.69  12.78
589.7  25517.70  3286.45  12.88
591.1  25735.55  3346.18  13.00
592.5  25883.00  3391.49  13.10
594.0  25998.42  3435.82  13.22
595.4  26057.54  3476.66  13.34
596.8  26115.38  3516.51  13.47
598.2  26174.55  3557.04  13.59
599.6  26202.06  3594.48  13.72
601.0  26298.70  3643.28  13.85
602.4  26372.18  3689.96  13.99
603.9  26501.77  3747.43  14.14
605.3  26625.41  3812.33  14.32
606.7  26749.80  3874.56  14.48
608.1  26941.18  3951.66  14.67
609.5  27151.69  4033.74  14.86
610.9  27387.74  4129.98  15.08
612.3  27589.20  4219.05  15.29
613.7  27871.80  4321.95  15.51
615.1  28061.64  4405.10  15.70
616.5  28235.16  4490.90  15.91
617.9  28534.12  4606.44  16.14
619.3  28808.15  4729.83  16.42
620.7  29149.14  4879.99  16.74
622.1  29527.66  4893.51  16.57
623.5  29951.83  4814.64  16.07
624.9  30436.35  4709.27  15.47
626.3  30757.12  4586.68  14.91
627.7  30461.43  4465.66  14.66
629.1  30188.34  4462.55  14.78
630.5  30083.03  4565.26  15.18
631.9  30076.12  4744.64  15.78
633.3  30078.24  4937.17  16.41
634.7  30183.54  5134.57  17.01
636.1  30268.81  5275.46  17.43
637.5  30374.19  5417.28  17.84
638.9  30520.15  5584.05  18.30
640.2  30643.60  5748.45  18.76
641.6  30733.56  5898.05  19.19
643.0  30777.50  6024.18  19.57
644.4  30869.16  6139.82  19.89
645.8  30855.38  6209.35  20.12
647.2  31023.20  6295.37  20.29
648.5  31185.15  6372.87  20.44
649.9  31117.13  6414.06  20.61
651.3  31099.80  6488.56  20.86
652.7  31059.00  6526.13  21.01
654.1  30961.56  6339.09  20.47
655.5  30829.51  6108.03  19.81
656.8  30685.81  5898.10  19.22
658.2  30861.69  5795.98  18.78
659.6  31181.89  5743.22  18.42
660.9  31452.29  5703.47  18.13
662.3  31767.46  5659.57  17.82
663.7  32102.70  5607.28  17.47
665.0  32334.98  5550.55  17.17
666.4  32575.38  5505.84  16.90
667.8  32873.84  5480.55  16.67
669.1  33084.01  5445.43  16.46
670.5  33327.47  5432.09  16.30
671.9  33513.12  5411.17  16.15
673.2  33742.50  5426.34  16.08
674.6  33950.66  5453.42  16.06
676.0  34219.05  5510.22  16.10
677.3  34494.18  5597.42  16.23
678.7  34767.13  5710.44  16.42
680.0  35103.31  5875.67  16.74
681.4  35420.13  6095.02  17.21
682.8  35763.00  6363.02  17.79
684.1  36073.44  6689.91  18.55
685.5  36318.59  7055.02  19.43
686.8  36607.26  7457.90  20.37
688.2  36844.31  7864.69  21.35
689.5  36898.97  8256.16  22.38
690.9  36950.15  8638.40  23.38
692.2  37008.15  9010.00  24.35
693.6  37024.93  9390.80  25.36
694.9  37005.38  9702.24  26.22
696.2  37027.13  9989.13  26.98
697.6  37047.86  10236.47  27.63
698.9  37049.76  10486.26  28.30
700.3  37075.62  10726.46  28.93
701.6  37124.24  10954.13  29.51
703.0  37178.40  11164.27  30.03
704.3  37172.20  11317.23  30.45
705.6  37157.22  11472.67  30.88
707.0  37168.46  11609.42  31.23
708.3  37076.04  11689.92  31.53
709.6  36967.81  11759.05  31.81
711.0  36867.73  11791.39  31.98
712.3  36770.31  11823.97  32.16
713.6  36755.88  11864.86  32.28
714.9  36684.64  11903.92  32.45
716.3  36701.44  11955.18  32.57
717.6  36734.04  12015.52  32.71
718.9  36680.73  12027.55  32.79
720.2  36496.25  11971.57  32.80
721.6  36394.28  11944.45  32.82
722.9  36240.12  11935.24  32.93
724.2  36067.30  11902.72  33.00
725.5  35963.70  11901.34  33.09
726.8  35833.96  11873.65  33.14
728.1  35810.80  11854.12  33.10
729.5  35779.10  11834.57  33.08
730.8  35779.13  11822.53  33.04
732.1  35704.25  11813.07  33.09
733.4  35690.92  11806.77  33.08
734.7  35685.89  11791.07  33.04
736.0  35729.66  11804.00  33.04
737.3  35717.44  11802.69  33.04
738.6  35830.21  11856.99  33.09
739.9  36014.88  11969.96  33.24
741.2  36161.58  12033.11  33.28
742.5  36363.94  12167.11  33.46
743.8  36737.66  12362.16  33.65
745.1  37309.08  12626.42  33.84
746.4  37926.98  12869.52  33.93
747.7  38536.99  13071.85  33.92
749.0  39118.92  13244.18  33.86
750.3  39493.02  13278.87  33.62
751.6  39440.80  13194.20  33.45
752.9  39084.79  13080.13  33.47
754.2  38731.25  12990.92  33.54
755.4  38386.91  12890.27  33.58
756.7  38244.09  12913.39  33.77
758.0  38261.36  12982.35  33.93
759.3  38489.95  13126.11  34.10
760.6  38786.44  13322.03  34.35
761.9  39062.28  13499.40  34.56
763.1  39197.21  13588.20  34.67
764.4  39371.54  13706.06  34.81
765.7  39490.75  13786.93  34.91
767.0  39577.16  13843.20  34.98
768.2  39644.64  13901.44  35.07
769.5  39697.68  13952.06  35.15
770.8  39836.32  14032.85  35.23
772.0  39856.44  14060.18  35.28
773.3  39898.95  14124.80  35.40
774.6  39978.84  14188.58  35.49
775.8  40054.79  14226.67  35.52
777.1  40085.96  14253.80  35.56
778.4  40059.57  14240.65  35.55
779.6  39999.54  14265.90  35.67
780.9  39948.00  14279.47  35.75
782.1  39837.20  14262.71  35.80
783.4  39802.88  14284.33  35.89
784.6  39851.08  14328.58  35.96
785.9  40095.40  14504.51  36.18
787.1  40531.58  14738.24  36.36
788.4  40834.19  14789.73  36.22
789.6  40796.10  14586.18  35.75
790.9  40479.11  14312.18  35.36
792.1  40128.24  14175.43  35.33
793.4  39739.41  14062.47  35.39
794.6  39507.48  13966.72  35.35
795.8  39314.07  13903.15  35.36
797.1  39097.95  13848.53  35.42
798.3  38940.83  13830.91  35.52
799.5  38821.14  13799.35  35.55
800.8  38733.05  13761.21  35.53
802.0  38591.76  13711.57  35.53
803.2  38469.72  13654.62  35.49
804.5  38377.94  13621.77  35.49
805.7  38264.87  13584.99  35.50
806.9  38181.95  13549.36  35.49
808.1  38074.65  13541.68  35.57
809.4  38033.33  13546.86  35.62
810.6  37951.55  13542.92  35.68
811.8  37942.61  13564.17  35.75
813.0  37965.80  13599.50  35.82
814.2  37975.49  13634.19  35.90
815.4  38039.93  13657.36  35.90
816.6  38032.65  13637.37  35.86
817.9  38050.16  13631.44  35.82
819.1  37997.24  13581.96  35.74
820.3  37865.18  13514.40  35.69
821.5  37787.61  13467.44  35.64
822.7  37714.41  13449.21  35.66
823.9  37704.87  13465.78  35.71
825.1  37688.07  13457.29  35.71
826.3  37716.38  13465.79  35.70
827.5  37726.06  13472.42  35.71
828.7  37779.60  13479.67  35.68
829.9  37796.29  13484.61  35.68
831.0  37849.02  13530.44  35.75
832.2  37913.75  13581.52  35.82
833.4  37950.44  13614.15  35.87
834.6  37978.13  13663.13  35.98
835.8  38031.53  13711.32  36.05
837.0  38073.26  13779.03  36.19
838.1  38178.69  13862.20  36.31
839.3  38239.24  13913.91  36.39
840.5  38296.24  13963.41  36.46
841.7  38381.58  14072.25  36.66
842.9  38485.06  14193.87  36.88
844.0  38543.94  14249.80  36.97
845.2  38626.85  14330.54  37.10
846.4  38724.98  14373.59  37.12
847.5  38888.12  14470.17  37.21
848.7  39002.30  14534.72  37.27
849.9  39141.74  14566.56  37.21
851.0  39173.78  14544.22  37.13
852.2  39245.07  14542.41  37.06
853.3  39202.67  14510.00  37.01
854.5  39188.19  14496.14  36.99
855.6  39170.88  14505.77  37.03
856.8  39193.80  14549.13  37.12
857.9  39192.81  14570.41  37.18
859.1  39326.60  14641.09  37.23
860.2  39300.24  14664.64  37.31
861.4  39344.78  14692.37  37.34
862.5  39384.29  14710.18  37.35
863.7  39467.66  14743.51  37.36
864.8  39454.45  14759.01  37.41
865.9  39398.65  14758.58  37.46
867.1  39448.45  14756.36  37.41
868.2  39441.53  14769.89  37.45
869.3  39465.67  14786.34  37.47
870.5  39438.89  14760.85  37.43
871.6  39473.54  14794.65  37.48
872.7  39541.37  14841.09  37.53
873.9  39548.50  14862.78  37.58
875.0  39546.05  14849.24  37.55
876.1  39583.15  14844.77  37.50
877.2  39616.79  14847.81  37.48
878.3  39601.98  14824.99  37.43
879.4  39662.11  14836.63  37.41
880.5  39702.60  14839.42  37.38
881.7  39698.10  14784.12  37.24
882.8  39775.46  14787.36  37.18
883.9  39785.32  14748.21  37.07
885.0  39766.55  14678.07  36.91
886.1  39735.85  14642.29  36.85
887.2  39664.66  14535.63  36.65
888.3  39567.00  14463.54  36.55
889.4  39535.02  14398.40  36.42
890.5  39459.91  14379.18  36.44
891.6  39428.33  14340.96  36.37
892.7  39429.01  14309.53  36.29
893.8  39492.50  14365.20  36.37
894.9  39505.51  14376.10  36.39
896.0  39527.49  14349.33  36.30
897.0  39487.40  14325.15  36.28
898.1  39490.45  14323.80  36.27
899.2  39536.22  14308.26  36.19
900.3  39503.73  14262.78  36.10
901.4  39454.09  14198.44  35.99
902.4  39461.49  14226.46  36.05
903.5  39418.10  14176.95  35.97
904.6  39431.18  14163.40  35.92
905.7  39454.64  14164.14  35.90
906.7  39397.52  14150.60  35.92
907.8  39514.80  14154.95  35.82
908.9  39443.33  14107.87  35.77
909.9  39411.21  14084.03  35.74
911.0  39357.50  14036.49  35.66
912.1  39280.99  13967.67  35.56
913.1  39233.48  13914.99  35.47
914.2  39173.92  13854.82  35.37
915.2  39170.79  13820.83  35.28
916.3  39094.50  13791.28  35.28
917.3  39076.47  13766.34  35.23
918.4  39031.30  13688.09  35.07
919.4  39022.48  13620.29  34.90
920.5  39026.74  13590.15  34.82
921.5  39018.63  13535.36  34.69
922.6  38959.72  13472.47  34.58
923.6  39026.05  13418.78  34.38
924.7  39022.50  13362.97  34.24
925.7  39030.84  13299.15  34.07
926.7  39009.32  13211.54  33.87
927.8  39032.57  13141.63  33.67
928.8  39142.62  13102.00  33.47
929.9  39330.10  13066.32  33.22
930.9  39447.46  13059.33  33.11
931.9  39602.61  13082.47  33.03
932.9  39864.58  13117.58  32.91
934.0  39909.81  13076.73  32.77
935.0  39942.68  12990.60  32.52
936.0  39929.50  12916.58  32.35
937.0  39883.94  12852.15  32.22
938.1  39848.52  12781.95  32.08
939.1  39753.89  12731.34  32.03
940.1  39867.76  12657.98  31.75
941.1  39995.43  12642.87  31.61
942.1  40229.45  12606.65  31.34
943.1  40393.76  12589.50  31.17
944.1  40552.56  12577.20  31.01
945.2  40570.32  12473.16  30.74
946.2  40685.67  12386.88  30.45
947.2  40740.25  12312.14  30.22
948.2  40874.09  12283.98  30.05
949.2  40954.06  12191.84  29.77
950.2  41026.00  12091.43  29.47
951.2  41012.16  11999.01  29.26
952.2  41170.94  11924.17  28.96
953.2  41257.13  11881.27  28.80
954.2  41395.95  11848.95  28.62
955.2  41401.94  11739.00  28.35
956.2  41391.82  11684.89  28.23
957.2  41524.97  11607.62  27.95
958.2  41486.28  11580.50  27.91
959.2  41625.00  11552.88  27.75
960.1  41647.94  11511.19  27.64
961.1  41725.78  11529.57  27.63
962.1  41752.50  11492.63  27.53
963.1  41720.60  11490.34  27.54
964.1  41837.60  11510.32  27.51
965.1  41932.95  11524.85  27.48
966.1  41961.44  11509.72  27.43
967.0  42058.17  11508.17  27.36
968.0  42094.69  11502.42  27.33
969.0  42115.20  11510.35  27.33
970.0  42092.26  11527.73  27.39
971.0  42266.18  11545.92  27.32
971.9  42275.33  11515.89  27.24
972.9  42388.85  11475.81  27.07
973.9  42492.13  11370.60  26.76
974.9  42580.28  11317.04  26.58
975.8  42630.52  11239.47  26.36
976.8  42806.43  11193.07  26.15
977.8  42848.34  11133.13  25.98
978.8  42868.95  11066.25  25.81
979.7  43050.58  11010.78  25.58
980.7  43264.32  10961.89  25.34
981.7  43347.07  10944.74  25.25
982.6  43545.07  10930.28  25.10
983.6  44003.55  10994.64  24.99
984.6  44377.46  10972.60  24.73
985.5  44900.28  10987.85  24.47
986.5  45688.01  11256.01  24.64
987.5  46285.78  11181.91  24.16
988.4  47161.40  11331.54  24.03
989.4  47812.76  11343.57  23.72
990.4  48753.98  11424.59  23.43
991.3  50274.64  11645.54  23.16
992.3  50864.45  11737.95  23.08
993.2  51610.85  11967.73  23.19
994.2  53891.66  11655.45  21.63
995.2  55394.96  12011.57  21.68
996.1  55625.12  11980.80  21.54
997.1  56348.70  11617.17  20.62
998.0  54473.40  11602.72  21.30
999.0  55283.87  11345.84  20.52
1000.0  55127.21  11325.45  20.54
1000.9  55875.58  11096.42  19.86
1001.9  56355.47  10946.74  19.42
1002.8  54776.67  10620.82  19.39
1003.8  57170.04  10561.18  18.47
1004.8  54763.20  10617.98  19.39
961.5  49984.08  10570.46  21.15
965.5  48959.90  10320.81  21.08
969.5  47367.08  9946.01  21.00
973.4  45664.01  9436.33  20.66
977.4  44063.24  8899.28  20.20
981.4  43484.76  8666.34  19.93
985.3  43466.28  8732.59  20.09
989.3  43739.41  8995.42  20.57
993.3  44088.36  9270.45  21.03
997.2  44246.85  9491.75  21.45
1001.2  44240.69  9662.08  21.84
1005.2  44147.66  9774.64  22.14
1009.1  44170.72  9902.54  22.42
1013.1  44298.35  10095.12  22.79
1017.1  44409.64  10313.30  23.22
1021.0  44418.65  10486.96  23.61
1025.0  44431.92  10640.56  23.95
1029.0  44310.95  10737.95  24.23
1032.9  44196.36  10839.44  24.53
1036.9  44214.81  10988.27  24.85
1040.9  44317.48  11177.76  25.22
1044.8  44471.57  11391.32  25.61
1048.8  44586.22  11590.68  26.00
1052.7  44660.98  11764.91  26.34
1056.7  44664.90  11894.51  26.63
1060.7  44652.74  11996.73  26.87
1064.6  44643.90  12075.74  27.05
1068.6  44545.19  12101.11  27.17
1072.5  44448.63  12090.60  27.20
1076.5  44390.31  12079.65  27.21
1080.4  44363.13  12058.00  27.18
1084.4  44428.99  12024.50  27.06
1088.3  44526.89  11981.54  26.91
1092.3  44515.11  11903.31  26.74
1096.2  44485.25  11801.98  26.53
1100.2  44489.30  11703.57  26.31
1104.1  44387.15  11577.83  26.08
1108.1  44344.78  11455.03  25.83
1112.0  44255.25  11295.44  25.52
1116.0  44078.91  11083.50  25.14
1119.9  43920.46  10843.84  24.69
1123.9  43980.05  10619.56  24.15
1127.8  43933.44  10304.00  23.45
1131.8  43891.20  9900.92  22.56
1135.7  43904.71  9421.62  21.46
1139.6  43873.24  8903.80  20.29
1143.6  43814.30  8434.04  19.25
1147.5  43764.96  8057.30  18.41
1151.4  43600.54  7760.94  17.80
1155.4  43567.43  7592.85  17.43
1159.3  43548.37  7507.13  17.24
1163.2  43379.84  7430.19  17.13
1167.2  43333.14  7393.88  17.06
1171.1  43320.14  7376.62  17.03
1175.0  43247.45  7345.33  16.98
1179.0  43203.54  7318.03  16.94
1182.9  43281.26  7315.68  16.90
1186.8  43262.79  7290.62  16.85
1190.7  43059.97  7226.56  16.78
1194.7  42822.73  7177.69  16.76
1198.6  42602.18  7144.83  16.77
1202.5  42456.57  7119.85  16.77
1206.4  42335.53  7116.66  16.81
1210.3  42230.32  7125.39  16.87
1214.2  42126.94  7131.18  16.93
1218.2  41984.08  7133.51  16.99
1222.1  41854.50  7156.97  17.10
1226.0  41760.57  7195.06  17.23
1229.9  41673.90  7232.38  17.35
1233.8  41576.55  7261.83  17.47
1237.7  41528.30  7294.28  17.56
1241.6  41457.25  7326.75  17.67
1245.5  41309.15  7343.04  17.78
1249.4  41175.26  7346.74  17.84
1253.3  41058.30  7356.19  17.92
1257.2  40978.33  7369.27  17.98
1261.1  40873.57  7377.48  18.05
1265.0  40757.89  7384.45  18.12
1268.9  40587.74  7358.03  18.13
1272.8  40626.75  7349.20  18.09
1276.7  40780.33  7359.75  18.05
1280.6  40842.56  7341.96  17.98
1284.5  40748.73  7274.09  17.85
1288.4  40697.88  7207.23  17.71
1292.3  40562.50  7122.50  17.56
1296.2  40411.46  7029.26  17.39
1300.1  40239.63  6918.17  17.19
1303.9  40009.73  6781.94  16.95
1307.8  39785.54  6631.80  16.67
1311.7  39554.21  6475.77  16.37
1315.6  39326.35  6313.00  16.05
1319.5  39086.11  6135.15  15.70
1323.3  38870.69  5952.40  15.31
1327.2  38681.53  5769.54  14.92
1331.1  38474.56  5587.51  14.52
1335.0  38203.08  5395.01  14.12
1338.8  38009.09  5226.09  13.75
1342.7  37876.27  5081.44  13.42
1346.5  37598.34  4919.16  13.08
1350.4  37400.07  4763.24  12.74
1354.3  37094.65  4592.00  12.38
1358.1  36731.71  4415.32  12.02
1362.0  36487.36  4268.75  11.70
1365.8  36370.47  4162.65  11.45
1369.7  36432.94  4089.23  11.22
1373.5  36366.82  3978.45  10.94
1377.4  36166.21  3778.39  10.45
1381.2  35990.96  3519.05  9.78
1385.1  35936.27  3277.94  9.12
