/*** Spectra Vista SIG Data ***/
name= S1.sig
comm= SIG file reprocesed for matching/overlap;Averaged Ref/Tar of files: GD3S1,GD3S2,GD3S3
data=
346.4  598.78  183.88  30.71
347.9  627.50  178.42  28.43
349.5  677.04  182.52  26.96
351.1  739.44  195.31  26.41
352.6  790.63  196.29  24.83
354.2  841.03  202.02  24.02
355.7  912.59  215.30  23.59
357.3  974.37  230.01  23.61
358.8  992.58  230.67  23.24
360.4  1062.29  241.53  22.74
361.9  1117.88  239.13  21.39
363.5  1149.55  249.19  21.68
365.1  1196.29  253.47  21.19
366.6  1260.16  260.20  20.65
368.2  1349.72  256.07  18.97
369.7  1403.95  255.87  18.23
371.3  1488.21  270.86  18.20
372.8  1577.00  278.11  17.64
374.4  1638.71  292.81  17.87
375.9  1688.10  290.62  17.22
377.4  1740.09  299.99  17.24
379.0  1788.57  300.22  16.79
380.5  1855.73  304.67  16.42
382.1  1905.98  309.49  16.24
383.6  1973.16  309.96  15.71
385.2  2065.25  323.13  15.65
386.7  2149.76  329.50  15.33
388.3  2271.83  344.85  15.18
389.8  2363.45  357.95  15.15
391.3  2453.59  377.00  15.37
392.9  2526.36  396.59  15.70
394.4  2602.50  416.74  16.01
395.9  2690.98  435.94  16.20
397.5  2829.48  454.03  16.05
399.0  2963.31  459.59  15.51
400.6  3033.76  470.16  15.50
402.1  3072.78  466.38  15.18
403.6  3116.75  467.43  15.00
405.1  3199.00  477.87  14.94
406.7  3304.00  488.77  14.79
408.2  3412.53  507.87  14.88
409.7  3521.28  524.46  14.89
411.3  3642.17  544.76  14.96
412.8  3732.75  563.82  15.10
414.3  3845.02  584.14  15.19
415.8  3965.00  602.25  15.19
417.4  4085.95  621.88  15.22
418.9  4192.21  637.39  15.20
420.4  4267.16  650.38  15.24
421.9  4346.32  657.68  15.13
423.5  4413.15  666.25  15.10
425.0  4492.75  674.10  15.00
426.5  4594.55  681.69  14.84
428.0  4712.54  695.59  14.76
429.5  4856.53  709.09  14.60
431.1  5025.20  729.69  14.52
432.6  5198.44  755.80  14.54
434.1  5370.75  779.56  14.51
435.6  5520.56  800.12  14.49
437.1  5670.60  827.84  14.60
438.6  5806.58  847.63  14.60
440.1  5943.54  874.88  14.72
441.6  6091.61  902.79  14.82
443.1  6230.93  934.88  15.00
444.7  6356.12  970.51  15.27
446.2  6474.98  1006.89  15.55
447.7  6582.53  1046.46  15.90
449.2  6691.68  1078.06  16.11
450.7  6814.08  1105.45  16.22
452.2  6930.56  1139.57  16.44
453.7  7066.33  1175.24  16.63
455.2  7233.85  1220.12  16.87
456.7  7443.04  1265.56  17.00
458.2  7673.27  1318.20  17.18
459.7  7920.50  1366.87  17.26
461.2  8156.07  1416.06  17.36
462.7  8366.46  1461.30  17.47
464.2  8568.06  1508.23  17.60
465.7  8788.58  1554.20  17.68
467.2  8970.50  1589.03  17.71
468.7  9176.00  1640.67  17.88
470.2  9305.26  1685.84  18.12
471.7  9490.50  1729.08  18.22
473.2  9788.42  1763.36  18.01
474.6  10042.30  1792.87  17.85
476.1  10127.24  1825.39  18.02
477.6  10169.21  1853.43  18.23
479.1  10224.56  1877.77  18.37
480.6  10293.47  1900.38  18.46
482.1  10426.95  1930.47  18.51
483.6  10590.11  1973.06  18.63
485.1  10796.39  2025.41  18.76
486.6  11041.55  2089.91  18.93
488.0  11290.50  2160.60  19.14
489.5  11568.25  2242.54  19.39
491.0  11840.59  2334.20  19.71
492.5  12119.22  2433.94  20.08
494.0  12409.65  2546.24  20.52
495.4  12660.45  2658.26  21.00
496.9  12912.44  2780.72  21.54
498.4  13155.80  2911.61  22.13
499.9  13408.52  3059.50  22.82
501.4  13645.90  3210.80  23.53
502.8  13864.50  3370.23  24.31
504.3  14081.40  3537.84  25.12
505.8  14291.05  3716.22  26.00
507.2  14436.37  3888.68  26.94
508.7  14548.87  4057.56  27.89
510.2  14651.50  4225.40  28.84
511.6  14718.08  4386.46  29.80
513.1  14838.45  4566.85  30.78
514.6  14986.45  4749.22  31.69
516.0  15112.04  4936.16  32.66
517.5  15305.31  5147.67  33.63
519.0  15537.89  5377.89  34.61
520.5  15768.60  5602.90  35.53
521.9  16045.99  5847.30  36.44
523.4  16363.11  6102.47  37.29
524.8  16675.79  6356.06  38.12
526.3  17027.53  6617.28  38.86
527.8  17380.80  6872.87  39.54
529.2  17706.86  7109.41  40.15
530.7  18056.71  7355.05  40.73
532.1  18377.28  7579.06  41.24
533.6  18738.23  7818.36  41.72
535.0  19114.67  8052.89  42.13
536.5  19476.07  8283.33  42.53
538.0  19846.24  8520.43  42.93
539.4  20198.95  8746.10  43.30
540.9  20626.19  8984.89  43.56
542.3  20984.92  9193.59  43.81
543.8  21250.33  9365.37  44.07
545.2  21329.19  9468.94  44.39
546.6  21331.64  9535.79  44.70
548.1  21362.06  9605.78  44.97
549.5  21376.46  9668.28  45.23
551.0  21386.66  9718.53  45.44
552.4  21443.54  9779.72  45.61
553.9  21463.89  9826.92  45.78
555.3  21521.57  9876.62  45.89
556.8  21650.10  9955.19  45.98
558.2  21773.81  10029.49  46.06
559.6  21936.94  10116.94  46.12
561.1  22168.25  10234.47  46.17
562.5  22423.78  10357.44  46.19
564.0  22757.43  10513.63  46.20
565.4  23059.14  10655.52  46.21
566.8  23449.52  10820.28  46.14
568.3  23818.66  10966.67  46.04
569.7  24198.01  11117.80  45.95
571.1  24579.14  11247.41  45.76
572.6  24952.86  11374.78  45.59
574.0  25317.60  11491.15  45.39
575.4  25678.69  11602.92  45.19
576.9  26008.29  11700.67  44.99
578.3  26306.64  11786.72  44.81
579.7  26593.28  11875.46  44.66
581.1  26823.10  11940.59  44.52
582.6  27065.10  12015.14  44.39
584.0  27286.52  12071.70  44.24
585.4  27587.92  12161.95  44.08
586.8  27978.96  12284.05  43.90
588.3  28419.30  12423.84  43.72
589.7  28786.68  12539.59  43.56
591.1  29016.81  12608.49  43.45
592.5  29127.43  12630.33  43.36
594.0  29186.34  12627.14  43.26
595.4  29194.56  12603.09  43.17
596.8  29193.45  12578.14  43.09
598.2  29177.08  12547.47  43.00
599.6  29153.88  12505.97  42.90
601.0  29216.28  12487.44  42.74
602.4  29261.60  12463.31  42.59
603.9  29364.60  12451.80  42.40
605.3  29484.10  12442.90  42.20
606.7  29584.80  12415.62  41.97
608.1  29785.49  12427.09  41.72
609.5  30013.28  12441.54  41.45
610.9  30296.78  12473.61  41.17
612.3  30557.28  12490.23  40.87
613.7  30914.00  12537.09  40.55
615.1  31159.08  12526.70  40.20
616.5  31406.64  12523.82  39.88
617.9  31801.61  12601.53  39.63
619.3  32170.62  12687.26  39.44
620.7  32635.92  12827.14  39.30
622.1  33083.75  12870.02  38.90
623.5  33564.04  12854.42  38.30
624.9  34116.86  12846.27  37.65
626.3  34490.69  12785.94  37.07
627.7  34145.81  12560.02  36.78
629.1  33851.16  12428.58  36.72
630.5  33743.57  12420.61  36.81
631.9  33775.53  12487.43  36.97
633.3  33808.52  12561.83  37.16
634.7  33992.91  12678.53  37.30
636.1  34075.08  12706.43  37.29
637.5  34196.58  12725.63  37.21
638.9  34374.61  12764.29  37.13
640.2  34545.58  12781.78  37.00
641.6  34634.34  12758.62  36.84
643.0  34657.83  12678.20  36.58
644.4  34696.37  12602.97  36.32
645.8  34653.86  12464.41  35.97
647.2  34834.41  12383.60  35.55
648.5  34958.93  12297.26  35.18
649.9  34861.32  12152.03  34.86
651.3  34789.65  12051.73  34.64
652.7  34680.00  11923.63  34.38
654.1  34452.30  11547.98  33.52
655.5  34172.42  11095.25  32.47
656.8  33904.63  10659.51  31.44
658.2  34070.04  10388.39  30.49
659.6  34442.82  10192.00  29.59
660.9  34748.70  9982.01  28.73
662.3  35067.95  9757.77  27.83
663.7  35364.00  9528.68  26.94
665.0  35617.00  9305.37  26.13
666.4  35877.31  9100.80  25.37
667.8  36209.10  8950.21  24.72
669.1  36482.80  8798.89  24.12
670.5  36799.72  8697.71  23.64
671.9  36995.40  8606.01  23.26
673.2  37270.13  8572.37  23.00
674.6  37530.47  8571.13  22.84
676.0  37841.78  8623.40  22.79
677.3  38141.57  8715.20  22.85
678.7  38483.75  8871.81  23.05
680.0  38922.37  9125.33  23.44
681.4  39389.45  9489.13  24.09
682.8  39844.35  9965.94  25.01
684.1  40287.78  10589.05  26.28
685.5  40705.56  11332.35  27.84
686.8  41091.84  12199.14  29.69
688.2  41433.89  13165.24  31.77
689.5  41549.57  14170.01  34.10
690.9  41633.44  15224.58  36.57
692.2  41697.60  16302.24  39.10
693.6  41771.65  17409.16  41.68
694.9  41721.88  18433.45  44.18
696.2  41751.90  19442.74  46.57
697.6  41766.04  20386.91  48.81
698.9  41796.48  21293.27  50.95
700.3  41844.24  22144.54  52.92
701.6  41918.48  22940.26  54.73
703.0  41979.40  23670.37  56.39
704.3  41981.71  24276.02  57.83
705.6  41967.18  24834.35  59.18
707.0  41980.75  25346.89  60.38
708.3  41872.71  25731.51  61.45
709.6  41753.67  26081.73  62.47
711.0  41589.99  26334.26  63.32
712.3  41418.66  26570.84  64.15
713.6  41354.04  26827.21  64.87
714.9  41240.96  27043.08  65.57
716.3  41218.54  27282.05  66.19
717.6  41221.95  27522.04  66.77
718.9  41134.56  27655.99  67.23
720.2  40936.00  27684.48  67.63
721.6  40765.66  27725.37  68.01
722.9  40572.15  27752.97  68.40
724.2  40305.71  27716.11  68.76
725.5  40134.57  27728.82  69.09
726.8  39960.91  27706.86  69.33
728.1  39855.98  27714.46  69.54
729.5  39766.23  27718.02  69.70
730.8  39707.44  27732.52  69.84
732.1  39612.07  27720.50  69.98
733.4  39556.45  27728.52  70.10
734.7  39507.57  27714.36  70.15
736.0  39511.29  27757.31  70.25
737.3  39463.58  27767.39  70.36
738.6  39569.04  27889.41  70.48
739.9  39770.92  28098.75  70.65
741.2  39928.98  28246.58  70.74
742.5  40206.42  28507.61  70.90
743.8  40696.43  28912.93  71.05
745.1  41398.16  29479.13  71.21
746.4  42245.84  30097.51  71.24
747.7  43136.62  30694.60  71.16
749.0  43980.49  31257.87  71.07
750.3  44484.44  31525.13  70.87
751.6  44396.66  31427.15  70.79
752.9  43969.12  31135.23  70.81
754.2  43470.53  30824.53  70.91
755.4  42928.75  30514.17  71.08
756.7  42746.48  30451.66  71.24
758.0  42774.71  30544.89  71.41
759.3  43048.01  30811.71  71.58
760.6  43418.76  31162.21  71.77
761.9  43775.94  31473.97  71.90
763.1  43996.61  31646.26  71.93
764.4  44239.34  31861.78  72.02
765.7  44424.25  32024.85  72.09
767.0  44583.75  32147.97  72.11
768.2  44688.00  32265.74  72.20
769.5  44782.92  32346.53  72.23
770.8  44990.42  32502.06  72.24
772.0  45014.41  32547.94  72.31
773.3  45100.97  32632.48  72.35
774.6  45226.84  32747.07  72.41
775.8  45313.45  32810.27  72.41
777.1  45344.81  32838.39  72.42
778.4  45245.88  32799.24  72.49
779.6  45226.44  32802.66  72.53
780.9  45132.00  32773.87  72.62
782.1  44952.26  32679.64  72.70
783.4  44936.32  32689.56  72.75
784.6  44935.72  32735.01  72.85
785.9  45255.62  33027.19  72.98
787.1  45836.93  33499.04  73.08
788.4  46288.94  33766.68  72.95
789.6  46219.23  33576.63  72.65
790.9  45788.99  33169.19  72.44
792.1  45296.16  32801.73  72.42
793.4  44771.54  32464.55  72.51
794.6  44415.30  32208.55  72.52
795.8  44134.47  32011.32  72.53
797.1  43801.05  31812.87  72.63
798.3  43569.08  31681.28  72.72
799.5  43411.48  31597.80  72.79
800.8  43273.13  31491.64  72.77
802.0  43071.08  31374.37  72.84
803.2  42890.28  31223.11  72.80
804.5  42742.15  31133.95  72.84
805.7  42601.95  31012.59  72.80
806.9  42426.40  30887.80  72.80
808.1  42305.67  30832.84  72.88
809.4  42221.44  30776.81  72.89
810.6  42105.70  30724.03  72.97
811.8  42062.43  30710.59  73.01
813.0  42071.08  30730.49  73.04
814.2  42081.20  30759.15  73.09
815.4  42185.03  30806.15  73.03
816.6  42225.34  30815.86  72.98
817.9  42273.21  30801.69  72.86
819.1  42166.58  30694.68  72.79
820.3  42039.03  30533.78  72.63
821.5  41905.07  30422.23  72.60
822.7  41849.58  30335.64  72.49
823.9  41838.35  30300.31  72.42
825.1  41851.34  30252.94  72.29
826.3  41890.94  30226.40  72.15
827.5  41937.05  30201.46  72.02
828.7  42011.28  30171.39  71.82
829.9  42039.57  30135.06  71.68
831.0  42140.75  30160.66  71.57
832.2  42235.78  30184.31  71.47
833.4  42305.18  30197.98  71.38
834.6  42417.19  30240.31  71.29
835.8  42496.65  30274.97  71.24
837.0  42597.61  30349.91  71.25
838.1  42745.68  30469.89  71.28
839.3  42856.00  30537.34  71.26
840.5  42989.60  30630.26  71.25
841.7  43156.80  30770.20  71.30
842.9  43298.86  30909.96  71.39
844.0  43430.88  31005.78  71.39
845.2  43568.90  31132.63  71.46
846.4  43732.15  31220.85  71.39
847.5  43960.00  31384.33  71.39
848.7  44164.79  31527.47  71.39
849.9  44393.85  31652.08  71.30
851.0  44478.08  31658.49  71.18
852.2  44569.63  31699.79  71.12
853.3  44562.81  31661.64  71.05
854.5  44594.90  31647.53  70.97
855.6  44615.97  31664.74  70.97
856.8  44687.86  31709.56  70.96
857.9  44681.40  31705.44  70.96
859.1  44832.20  31823.36  70.98
860.2  44876.88  31836.88  70.94
861.4  44954.55  31873.79  70.90
862.5  45021.69  31913.18  70.88
863.7  45150.84  32000.20  70.87
864.8  45213.35  32023.30  70.83
865.9  45167.77  32007.89  70.86
867.1  45241.43  32025.99  70.79
868.2  45295.54  32034.11  70.72
869.3  45314.27  32031.58  70.69
870.5  45282.48  31978.35  70.62
871.6  45315.83  31993.24  70.60
872.7  45413.27  32070.73  70.62
873.9  45478.16  32056.79  70.49
875.0  45456.71  32015.96  70.43
876.1  45452.45  32003.12  70.41
877.2  45498.99  31996.55  70.32
878.3  45519.98  31957.17  70.20
879.4  45563.53  31936.95  70.09
880.5  45631.08  31951.97  70.02
881.7  45596.20  31891.43  69.94
882.8  45693.96  31867.46  69.74
883.9  45722.91  31835.85  69.63
885.0  45675.63  31754.09  69.52
886.1  45712.78  31652.38  69.24
887.2  45537.58  31482.08  69.13
888.3  45475.07  31356.55  68.95
889.4  45347.40  31208.43  68.82
890.5  45259.13  31099.07  68.71
891.6  45193.70  31015.14  68.63
892.7  45201.31  30962.66  68.50
893.8  45270.56  30974.10  68.42
894.9  45248.28  30948.57  68.40
896.0  45235.90  30865.16  68.23
897.0  45257.72  30836.86  68.14
898.1  45230.13  30817.17  68.13
899.2  45252.30  30767.21  67.99
900.3  45165.90  30658.66  67.88
901.4  45101.16  30524.04  67.68
902.4  45077.20  30531.91  67.73
903.5  45018.01  30419.88  67.57
904.6  45035.56  30369.96  67.44
905.7  45038.93  30320.52  67.32
906.7  44985.82  30255.83  67.26
907.8  45025.57  30243.35  67.17
908.9  44904.57  30115.83  67.07
909.9  44897.74  30053.21  66.94
911.0  44830.08  29938.05  66.78
912.1  44749.25  29834.15  66.67
913.1  44707.00  29697.30  66.43
914.2  44554.62  29567.41  66.36
915.2  44505.45  29496.14  66.28
916.3  44491.35  29405.30  66.09
917.3  44461.10  29315.10  65.93
918.4  44383.35  29136.45  65.65
919.4  44330.69  29001.11  65.42
920.5  44315.70  28928.82  65.28
921.5  44285.78  28832.69  65.11
922.6  44268.10  28690.53  64.81
923.6  44262.16  28614.49  64.65
924.7  44333.00  28491.44  64.27
925.7  44276.22  28374.65  64.09
926.7  44252.98  28278.10  63.90
927.8  44374.33  28157.67  63.45
928.8  44502.63  28089.14  63.12
929.9  44598.23  28017.18  62.82
930.9  44802.27  28023.49  62.55
931.9  45011.35  28012.06  62.23
932.9  45355.12  28082.02  61.92
934.0  45370.16  27975.92  61.66
935.0  45397.97  27853.05  61.35
936.0  45413.73  27679.40  60.95
937.0  45319.95  27519.87  60.72
938.1  45295.44  27350.86  60.38
939.1  45257.91  27173.17  60.04
940.1  45342.90  27104.98  59.78
941.1  45568.46  27092.16  59.45
942.1  45803.34  27092.92  59.15
943.1  45999.43  27056.84  58.82
944.1  46171.28  27038.04  58.56
945.2  46338.18  26917.98  58.09
946.2  46411.22  26783.41  57.71
947.2  46518.25  26681.79  57.36
948.2  46693.82  26598.07  56.96
949.2  46838.19  26492.84  56.56
950.2  46912.95  26329.23  56.12
951.2  46909.80  26179.05  55.81
952.2  47054.57  26082.19  55.43
953.2  47260.85  25982.13  54.98
954.2  47365.65  25864.68  54.61
955.2  47408.68  25745.50  54.31
956.2  47434.65  25589.14  53.95
957.2  47543.77  25473.75  53.58
958.2  47601.59  25406.00  53.37
959.2  47735.55  25366.83  53.14
960.1  47775.14  25290.02  52.94
961.1  47870.63  25293.10  52.84
962.1  47933.44  25260.50  52.70
963.1  48032.50  25256.13  52.58
964.1  48057.21  25230.81  52.50
965.1  48243.99  25292.77  52.43
966.1  48335.33  25268.01  52.28
967.0  48410.39  25332.68  52.33
968.0  48434.88  25338.58  52.31
969.0  48556.60  25324.76  52.16
970.0  48603.65  25368.66  52.19
971.0  48737.12  25371.10  52.06
971.9  48722.90  25391.17  52.11
972.9  48879.95  25348.89  51.86
973.9  48859.53  25379.74  51.94
974.9  49044.08  25365.03  51.72
975.8  49101.73  25375.85  51.68
976.8  49135.91  25379.89  51.65
977.8  49315.41  25410.60  51.53
978.8  49372.50  25454.65  51.56
979.7  49504.50  25527.21  51.57
981.4  50850.20  26273.24  51.67
985.3  50481.20  26206.52  51.91
989.3  50535.22  26447.85  52.34
993.3  50635.09  26788.24  52.90
997.2  50595.02  27030.38  53.42
1001.2  50545.04  27224.69  53.86
1005.2  50473.33  27424.46  54.33
1009.1  50535.74  27726.70  54.87
1013.1  50697.93  28116.11  55.46
1017.1  50843.90  28509.97  56.07
1021.0  50855.49  28814.37  56.66
1025.0  50816.26  29097.04  57.26
1029.0  50641.08  29287.93  57.83
1032.9  50496.42  29473.12  58.37
1036.9  50486.34  29747.02  58.92
1040.9  50614.23  30102.09  59.47
1044.8  50848.91  30513.34  60.01
1048.8  51055.33  30891.57  60.51
1052.7  51200.97  31203.20  60.94
1056.7  51265.76  31422.07  61.29
1060.7  51328.86  31586.27  61.54
1064.6  51364.29  31699.22  61.71
1068.6  51285.22  31699.23  61.81
1072.5  51205.93  31654.98  61.82
1076.5  51155.97  31593.62  61.76
1080.4  51154.95  31514.91  61.61
1084.4  51258.31  31443.89  61.34
1088.3  51367.47  31349.16  61.03
1092.3  51376.13  31151.24  60.63
1096.2  51342.58  30917.62  60.22
1100.2  51360.86  30704.81  59.78
1104.1  51244.60  30403.41  59.33
1108.1  51175.76  30135.81  58.89
1112.0  51059.75  29809.22  58.38
1116.0  50831.30  29368.76  57.78
1119.9  50653.13  28891.31  57.04
1123.9  50703.41  28463.51  56.14
1127.8  50649.60  27822.08  54.93
1131.8  50608.23  27007.82  53.37
1135.7  50617.81  26066.40  51.50
1139.6  50606.06  25026.92  49.45
1143.6  50555.26  24032.30  47.54
1147.5  50517.05  23200.17  45.93
1151.4  50365.69  22505.98  44.69
1155.4  50355.11  22085.96  43.86
1159.3  50376.78  21822.06  43.32
1163.2  50207.59  21561.42  42.94
1167.2  50161.80  21425.26  42.71
1171.1  50174.37  21350.37  42.55
1175.0  50101.08  21252.05  42.42
1179.0  50065.70  21165.00  42.27
1182.9  50165.17  21133.42  42.13
1186.8  50159.61  21058.70  41.98
1190.7  49934.95  20903.41  41.86
1194.7  49665.47  20744.94  41.77
1198.6  49438.62  20630.61  41.73
1202.5  49264.40  20577.78  41.77
1206.4  49122.14  20558.10  41.85
1210.3  49037.26  20562.99  41.93
1214.2  48930.30  20582.97  42.07
1218.2  48765.56  20593.52  42.23
1222.1  48630.48  20622.68  42.41
1226.0  48538.40  20681.88  42.61
1229.9  48450.48  20736.78  42.80
1233.8  48352.03  20768.96  42.95
1237.7  48317.50  20819.18  43.09
1241.6  48229.08  20855.16  43.24
1245.5  48061.09  20852.96  43.39
1249.4  47934.98  20844.20  43.48
1253.3  47803.87  20834.46  43.58
1257.2  47735.46  20847.23  43.67
1261.1  47624.11  20830.93  43.74
1265.0  47490.52  20785.01  43.77
1268.9  47304.07  20690.27  43.74
1272.8  47372.70  20687.20  43.67
1276.7  47590.81  20716.98  43.53
1280.6  47691.16  20672.21  43.35
1284.5  47615.01  20524.02  43.10
1288.4  47591.67  20367.95  42.80
1292.3  47467.75  20151.08  42.45
1296.2  47318.59  19900.86  42.06
1300.1  47148.87  19610.99  41.59
1303.9  46897.39  19254.25  41.06
1307.8  46639.44  18873.70  40.47
1311.7  46386.67  18472.10  39.82
1315.6  46123.85  18051.33  39.14
1319.5  45848.18  17598.68  38.38
1323.3  45606.50  17140.11  37.58
1327.2  45386.16  16688.31  36.77
1331.1  45132.53  16220.27  35.94
1335.0  44824.46  15733.14  35.10
1338.8  44600.56  15305.96  34.32
1342.7  44421.07  14923.47  33.60
1346.5  44042.02  14509.92  32.95
1350.4  43720.62  14146.58  32.36
1354.3  43279.60  13761.83  31.80
1358.1  42799.92  13355.99  31.21
1362.0  42533.76  12986.31  30.53
1365.8  42447.40  12662.59  29.83
1369.7  42569.31  12377.65  29.08
1373.5  42515.11  11979.13  28.18
1377.4  42239.08  11412.75  27.02
1381.2  42024.35  10732.92  25.54
1385.1  42007.68  10052.88  23.93
1389.0  41913.21  9378.62  22.38
1392.8  41686.58  8699.54  20.87
1396.6  41522.45  8083.28  19.47
1400.5  41297.26  7540.87  18.26
1404.3  41119.22  7098.60  17.26
1408.2  41089.83  6758.47  16.45
1412.0  41038.18  6492.60  15.82
1415.8  41063.56  6305.66  15.36
1419.6  41020.11  6148.68  14.99
1423.5  40984.07  6026.45  14.70
1427.3  40938.38  5938.52  14.51
1431.1  40915.35  5872.95  14.35
1434.9  40812.08  5802.91  14.22
1438.8  40755.58  5759.72  14.13
1442.6  40720.04  5735.38  14.08
1446.4  40579.53  5697.96  14.04
1450.2  40476.97  5676.83  14.02
1454.0  40349.16  5653.64  14.01
