/*** Spectra Vista SIG Data ***/
name= RS.sig
comm= Averaged Ref/Tar of files: RS1,RS2,RS3
data=
346.4  468.20  61.26  13.08
347.9  473.76  62.75  13.25
349.5  521.04  62.40  11.98
351.1  558.48  64.27  11.51
352.6  585.06  65.47  11.19
354.2  625.05  70.36  11.26
355.7  673.50  73.08  10.85
357.3  724.71  73.74  10.18
358.8  751.43  73.16  9.74
360.4  798.47  75.04  9.40
361.9  821.87  79.52  9.68
363.5  851.78  73.98  8.69
365.1  887.68  75.59  8.52
366.6  918.37  78.37  8.53
368.2  973.68  77.89  8.00
369.7  1008.89  76.40  7.57
371.3  1073.36  74.52  6.94
372.8  1148.72  77.69  6.76
374.4  1191.49  79.55  6.68
375.9  1247.87  79.00  6.33
377.4  1278.23  82.61  6.46
379.0  1330.29  84.44  6.35
380.5  1360.26  80.94  5.95
382.1  1412.49  82.35  5.83
383.6  1460.03  79.76  5.46
385.2  1529.00  81.22  5.31
386.7  1608.26  82.31  5.12
388.3  1679.42  85.42  5.09
389.8  1759.55  87.93  5.00
391.3  1843.67  89.86  4.87
392.9  1897.62  96.54  5.09
394.4  1955.58  94.66  4.84
395.9  2019.02  103.93  5.15
397.5  2131.80  111.33  5.22
399.0  2240.25  104.55  4.67
400.6  2303.62  103.67  4.50
402.1  2342.64  102.94  4.39
403.6  2375.92  100.29  4.22
405.1  2451.81  101.23  4.13
406.7  2542.40  102.59  4.04
408.2  2650.73  102.47  3.87
409.7  2746.24  107.22  3.90
411.3  2843.51  109.40  3.85
412.8  2936.43  114.39  3.90
414.3  3034.90  120.34  3.97
415.8  3152.50  122.92  3.90
417.4  3253.58  126.42  3.89
418.9  3339.60  127.77  3.83
420.4  3424.70  130.77  3.82
421.9  3487.22  129.95  3.73
423.5  3546.87  129.12  3.64
425.0  3613.98  130.43  3.61
426.5  3695.85  131.22  3.55
428.0  3801.23  131.50  3.46
429.5  3926.30  132.92  3.39
431.1  4071.24  137.19  3.37
432.6  4225.66  138.17  3.27
434.1  4373.60  143.29  3.28
435.6  4514.36  147.90  3.28
437.1  4642.95  151.39  3.26
438.6  4769.06  154.78  3.25
440.1  4906.69  157.67  3.21
441.6  5042.30  161.87  3.21
443.1  5179.95  165.38  3.19
444.7  5318.34  169.75  3.19
446.2  5433.01  176.12  3.24
447.7  5551.25  178.64  3.22
449.2  5676.48  182.16  3.21
450.7  5788.64  183.80  3.18
452.2  5916.62  184.77  3.12
453.7  6028.91  186.19  3.09
455.2  6201.73  190.51  3.07
456.7  6390.56  194.48  3.04
458.2  6607.30  200.62  3.04
459.7  6823.25  205.74  3.02
461.2  7031.76  212.62  3.02
462.7  7219.07  217.37  3.01
464.2  7396.86  224.30  3.03
465.7  7583.22  228.93  3.02
467.2  7742.35  233.76  3.02
468.7  7912.00  239.73  3.03
470.2  8015.91  245.39  3.06
471.7  8177.13  253.34  3.10
473.2  8446.52  255.13  3.02
474.6  8688.33  255.10  2.94
476.1  8747.12  255.96  2.93
477.6  8779.39  257.02  2.93
479.1  8829.54  255.85  2.90
480.6  8916.06  257.50  2.89
482.1  9046.91  257.38  2.84
483.6  9204.08  259.06  2.81
485.1  9394.00  262.81  2.80
486.6  9626.34  269.48  2.80
488.0  9867.00  275.71  2.79
489.5  10130.90  283.65  2.80
491.0  10387.73  288.74  2.78
492.5  10649.88  295.27  2.77
494.0  10928.34  304.22  2.78
495.4  11158.95  310.04  2.78
496.9  11406.10  319.36  2.80
498.4  11649.48  326.03  2.80
499.9  11878.23  332.51  2.80
501.4  12101.58  341.03  2.82
502.8  12308.24  348.41  2.83
504.3  12497.40  353.94  2.83
505.8  12681.02  360.50  2.84
507.2  12808.72  369.44  2.88
508.7  12896.48  374.80  2.91
510.2  12964.78  376.57  2.90
511.6  13008.39  381.15  2.93
513.1  13093.74  381.98  2.92
514.6  13195.49  384.43  2.91
516.0  13281.41  385.38  2.90
517.5  13429.99  391.50  2.92
519.0  13603.01  396.68  2.92
520.5  13772.72  402.18  2.92
521.9  13993.28  409.63  2.93
523.4  14243.35  416.24  2.92
524.8  14493.24  424.41  2.93
526.3  14778.04  432.07  2.92
527.8  15074.01  442.19  2.93
529.2  15339.71  452.95  2.95
530.7  15629.94  461.66  2.95
532.1  15903.48  469.27  2.95
533.6  16214.37  479.74  2.96
535.0  16534.98  492.55  2.98
536.5  16856.03  503.45  2.99
538.0  17178.24  516.24  3.01
539.4  17501.02  528.01  3.02
540.9  17879.62  545.59  3.05
542.3  18237.67  560.78  3.07
543.8  18504.51  571.63  3.09
545.2  18600.74  577.15  3.10
546.6  18637.00  585.58  3.14
548.1  18690.38  589.62  3.15
549.5  18745.60  596.51  3.18
551.0  18790.92  600.69  3.20
552.4  18868.34  612.54  3.25
553.9  18922.09  618.51  3.27
555.3  18999.63  631.10  3.32
556.8  19143.87  642.15  3.35
558.2  19276.31  657.96  3.41
559.6  19441.66  672.90  3.46
561.1  19660.88  692.41  3.52
562.5  19883.82  713.43  3.59
564.0  20177.05  737.55  3.66
565.4  20444.07  763.61  3.74
566.8  20774.24  796.36  3.83
568.3  21077.79  827.19  3.92
569.7  21403.31  861.88  4.03
571.1  21706.83  898.49  4.14
572.6  22010.94  939.06  4.27
574.0  22299.75  977.68  4.38
575.4  22570.31  1019.87  4.52
576.9  22820.49  1064.39  4.66
578.3  23040.88  1111.53  4.82
579.7  23243.15  1160.24  4.99
581.1  23410.31  1208.46  5.16
582.6  23592.46  1260.83  5.34
584.0  23735.52  1314.75  5.54
585.4  23971.18  1380.91  5.76
586.8  24286.87  1452.48  5.98
588.3  24642.54  1531.53  6.21
589.7  24935.04  1606.10  6.44
591.1  25126.37  1672.78  6.66
592.5  25213.30  1735.87  6.88
594.0  25248.06  1797.09  7.12
595.4  25246.58  1851.18  7.33
596.8  25248.80  1911.91  7.57
598.2  25256.70  1975.17  7.82
599.6  25254.00  2038.26  8.07
601.0  25321.45  2106.64  8.32
602.4  25392.58  2174.67  8.56
603.9  25508.50  2247.50  8.81
605.3  25652.08  2319.09  9.04
606.7  25770.60  2386.98  9.26
608.1  26003.60  2463.08  9.47
609.5  26249.20  2544.26  9.69
610.9  26543.12  2625.82  9.89
612.3  26820.62  2707.24  10.09
613.7  27191.20  2797.62  10.29
615.1  27470.34  2874.15  10.46
616.5  27748.85  2951.06  10.63
617.9  28163.94  3047.90  10.82
619.3  28559.37  3148.96  11.03
620.7  29021.55  3269.51  11.27
622.1  29524.34  3258.61  11.04
623.5  30070.32  3186.74  10.60
624.9  30686.25  3176.73  10.35
626.3  31117.56  3200.87  10.29
627.7  30854.43  3241.47  10.51
629.1  30617.27  3332.71  10.89
630.5  30534.25  3454.58  11.31
631.9  30583.88  3586.39  11.73
633.3  30636.73  3696.91  12.07
634.7  30802.72  3798.87  12.33
636.1  30887.16  3864.69  12.51
637.5  30991.21  3922.26  12.66
638.9  31137.59  3974.24  12.76
640.2  31275.86  4019.74  12.85
641.6  31334.94  4044.06  12.91
643.0  31307.82  4041.56  12.91
644.4  31297.86  4045.39  12.93
645.8  31223.60  4026.03  12.89
647.2  31327.01  4027.17  12.86
648.5  31378.61  4028.38  12.84
649.9  31215.99  4016.88  12.87
651.3  31061.55  4027.98  12.97
652.7  30880.50  4019.99  13.02
654.1  30705.72  3884.75  12.65
655.5  30448.41  3715.30  12.20
656.8  30219.54  3571.12  11.82
658.2  30347.48  3475.57  11.45
659.6  30667.01  3402.14  11.09
660.9  30915.41  3336.21  10.79
662.3  31175.28  3262.63  10.47
663.7  31418.10  3176.74  10.11
665.0  31622.76  3091.40  9.78
666.4  31821.65  3020.34  9.49
667.8  32088.83  2962.83  9.23
669.1  32304.87  2899.61  8.98
670.5  32567.66  2863.18  8.79
671.9  32723.64  2826.89  8.64
673.2  32957.22  2818.15  8.55
674.6  33165.65  2825.76  8.52
676.0  33416.99  2853.35  8.54
677.3  33670.84  2908.00  8.64
678.7  33959.63  2974.15  8.76
680.0  34360.72  3097.03  9.01
681.4  34770.40  3259.06  9.37
682.8  35166.95  3480.60  9.90
684.1  35575.02  3771.46  10.60
685.5  35948.61  4129.58  11.49
686.8  36307.14  4560.76  12.56
688.2  36654.12  5047.79  13.77
689.5  36792.82  5562.52  15.12
690.9  36894.22  6121.15  16.59
692.2  37000.50  6698.68  18.10
693.6  37086.31  7300.98  19.69
694.9  37102.94  7849.87  21.16
696.2  37172.03  8386.52  22.56
697.6  37238.58  8896.78  23.89
698.9  37321.68  9404.30  25.20
700.3  37412.04  9891.37  26.44
701.6  37521.51  10352.29  27.59
703.0  37648.39  10775.61  28.62
704.3  37727.46  11116.76  29.47
705.6  37779.39  11456.39  30.32
707.0  37853.11  11767.76  31.09
708.3  37804.36  11991.96  31.72
709.6  37779.31  12214.21  32.33
711.0  37700.05  12375.46  32.83
712.3  37603.29  12535.01  33.33
713.6  37599.66  12702.57  33.78
714.9  37564.50  12867.33  34.25
716.3  37606.65  13017.04  34.61
717.6  37655.10  13181.99  35.01
718.9  37643.31  13279.01  35.28
720.2  37519.65  13297.98  35.44
721.6  37437.79  13344.27  35.64
722.9  37295.06  13401.81  35.93
724.2  37099.21  13408.22  36.14
725.5  36957.59  13452.78  36.40
726.8  36833.83  13439.93  36.49
728.1  36764.75  13441.80  36.56
729.5  36694.32  13449.79  36.65
730.8  36660.60  13462.75  36.72
732.1  36590.42  13467.89  36.81
733.4  36549.03  13474.21  36.87
734.7  36509.02  13455.77  36.86
736.0  36510.50  13475.04  36.91
737.3  36452.29  13476.51  36.97
738.6  36538.42  13539.78  37.06
739.9  36706.85  13666.68  37.23
741.2  36841.35  13712.70  37.22
742.5  37078.82  13832.84  37.31
743.8  37494.19  14027.09  37.41
745.1  38118.44  14294.16  37.50
746.4  38876.11  14560.65  37.45
747.7  39639.96  14820.85  37.39
749.0  40400.48  15103.25  37.38
750.3  40850.46  15219.12  37.26
751.6  40764.46  15182.83  37.25
752.9  40356.61  15078.06  37.36
754.2  39863.99  14942.51  37.48
755.4  39350.05  14758.21  37.50
756.7  39155.03  14733.02  37.63
758.0  39142.09  14766.86  37.73
759.3  39351.46  14895.57  37.85
760.6  39645.76  15090.15  38.06
761.9  39928.94  15253.30  38.20
763.1  40078.15  15315.25  38.21
764.4  40287.45  15417.37  38.27
765.7  40433.25  15487.98  38.31
767.0  40515.07  15534.96  38.34
768.2  40595.52  15581.33  38.38
769.5  40644.33  15625.38  38.44
770.8  40787.04  15701.08  38.50
772.0  40799.41  15716.28  38.52
773.3  40833.29  15772.47  38.63
774.6  40907.98  15827.74  38.69
775.8  40955.53  15846.25  38.69
777.1  40964.33  15856.68  38.71
778.4  40867.87  15810.21  38.69
779.6  40816.98  15827.55  38.78
780.9  40688.00  15814.13  38.87
782.1  40484.72  15762.75  38.94
783.4  40464.32  15760.16  38.95
784.6  40463.12  15774.08  38.98
785.9  40670.74  15922.20  39.15
787.1  41171.80  16139.19  39.20
788.4  41528.97  16240.39  39.11
789.6  41482.13  16127.65  38.88
790.9  41134.16  15913.42  38.69
792.1  40655.28  15738.81  38.71
793.4  40180.32  15581.06  38.78
794.6  39846.60  15470.78  38.83
795.8  39587.54  15395.77  38.89
797.1  39290.10  15285.84  38.91
798.3  39054.26  15235.72  39.01
799.5  38943.25  15187.16  39.00
800.8  38778.22  15134.68  39.03
802.0  38618.88  15072.09  39.03
803.2  38465.20  14990.13  38.97
804.5  38332.71  14951.99  39.01
805.7  38219.65  14898.32  38.98
806.9  38073.35  14850.75  39.01
808.1  37984.05  14844.96  39.08
809.4  37906.28  14839.89  39.15
810.6  37824.15  14816.32  39.17
811.8  37796.29  14830.60  39.24
813.0  37827.58  14841.22  39.23
814.2  37840.50  14856.74  39.26
815.4  37955.24  14887.25  39.22
816.6  38027.91  14898.02  39.18
817.9  38102.35  14888.23  39.07
819.1  38072.96  14834.97  38.96
820.3  37949.69  14754.19  38.88
821.5  37894.61  14713.22  38.83
822.7  37866.54  14693.15  38.80
823.9  37906.28  14678.97  38.72
825.1  37943.15  14651.31  38.61
826.3  38020.73  14638.81  38.50
827.5  38108.05  14641.89  38.42
828.7  38176.32  14612.52  38.28
829.9  38262.68  14613.10  38.19
831.0  38386.63  14633.70  38.12
832.2  38533.16  14666.27  38.06
833.4  38634.36  14695.23  38.04
834.6  38746.88  14718.44  37.99
835.8  38872.58  14746.73  37.94
837.0  39026.76  14817.23  37.97
838.1  39200.00  14886.88  37.98
839.3  39334.99  14928.17  37.95
840.5  39499.16  14966.00  37.89
841.7  39675.29  15081.90  38.01
842.9  39834.34  15179.46  38.11
844.0  40002.80  15219.62  38.05
845.2  40188.33  15281.10  38.02
846.4  40315.24  15312.70  37.98
847.5  40575.08  15410.73  37.98
848.7  40794.29  15491.76  37.98
849.9  41043.27  15543.67  37.87
851.0  41176.72  15536.37  37.73
852.2  41283.01  15551.37  37.67
853.3  41336.03  15526.17  37.56
854.5  41385.60  15532.78  37.53
855.6  41408.01  15545.34  37.54
856.8  41491.09  15601.96  37.60
857.9  41535.42  15595.36  37.55
859.1  41657.80  15658.31  37.59
860.2  41711.76  15656.67  37.54
861.4  41789.90  15683.58  37.53
862.5  41857.52  15702.06  37.51
863.7  41978.22  15745.55  37.51
864.8  42001.40  15747.87  37.49
865.9  42003.19  15740.12  37.47
867.1  42077.89  15737.61  37.40
868.2  42118.25  15744.63  37.38
869.3  42153.63  15744.41  37.35
870.5  42092.46  15703.79  37.31
871.6  42122.53  15731.11  37.35
872.7  42223.14  15776.03  37.36
873.9  42262.83  15768.80  37.31
875.0  42247.20  15732.17  37.24
876.1  42225.11  15714.13  37.22
877.2  42279.84  15708.60  37.15
878.3  42302.12  15656.00  37.01
879.4  42284.06  15648.37  37.01
880.5  42343.92  15626.02  36.90
881.7  42326.05  15585.46  36.82
882.8  42351.34  15578.22  36.78
883.9  42430.09  15545.73  36.64
885.0  42357.32  15491.09  36.57
886.1  42357.47  15446.96  36.47
887.2  42241.92  15350.71  36.34
888.3  42147.85  15267.47  36.22
889.4  42045.32  15190.18  36.13
890.5  41945.29  15141.01  36.10
891.6  41864.40  15079.61  36.02
892.7  41844.69  15045.09  35.95
893.8  41881.85  15072.62  35.99
894.9  41879.31  15057.80  35.96
896.0  41812.69  14992.37  35.86
897.0  41850.92  14968.04  35.77
898.1  41821.61  14953.80  35.76
899.2  41852.54  14934.66  35.68
900.3  41747.94  14846.22  35.56
901.4  41622.41  14784.21  35.52
902.4  41658.53  14785.83  35.49
903.5  41604.82  14741.69  35.43
904.6  41550.72  14732.43  35.46
905.7  41565.54  14690.91  35.34
906.7  41536.49  14644.56  35.26
907.8  41558.34  14637.59  35.22
908.9  41493.73  14570.74  35.12
909.9  41451.58  14514.56  35.02
911.0  41358.23  14466.06  34.98
912.1  41297.17  14389.26  34.84
913.1  41189.72  14326.00  34.78
914.2  41099.85  14239.67  34.65
915.2  41068.89  14196.46  34.57
916.3  41034.15  14160.79  34.51
917.3  40975.74  14097.70  34.40
918.4  40862.80  13994.02  34.25
919.4  40836.29  13919.52  34.09
920.5  40782.84  13869.75  34.01
921.5  40833.45  13818.36  33.84
922.6  40729.18  13718.93  33.68
923.6  40739.49  13668.16  33.55
924.7  40774.75  13612.01  33.38
925.7  40746.72  13544.59  33.24
926.7  40808.40  13455.80  32.97
927.8  40839.01  13376.95  32.76
928.8  40966.59  13347.81  32.58
929.9  41048.46  13299.21  32.40
930.9  41217.18  13289.97  32.24
931.9  41378.61  13287.75  32.11
932.9  41679.25  13322.70  31.96
934.0  41702.58  13239.60  31.75
935.0  41757.18  13167.73  31.53
936.0  41670.71  13056.35  31.33
937.0  41632.50  12958.02  31.12
938.1  41580.55  12876.71  30.97
939.1  41508.45  12811.46  30.86
940.1  41591.64  12725.55  30.60
941.1  41779.29  12704.38  30.41
942.1  41991.60  12669.55  30.17
943.1  42156.63  12626.27  29.95
944.1  42391.18  12614.07  29.76
945.2  42445.20  12528.28  29.52
946.2  42493.04  12432.17  29.26
947.2  42572.63  12370.09  29.06
948.2  42750.54  12303.02  28.78
949.2  42846.38  12209.79  28.50
950.2  42880.60  12118.59  28.26
951.2  42968.52  12032.33  28.00
952.2  43001.40  11934.83  27.75
953.2  43164.71  11870.91  27.50
954.2  43310.48  11811.27  27.27
955.2  43368.34  11703.67  26.99
956.2  43301.73  11609.23  26.81
957.2  43392.87  11532.58  26.58
958.2  43492.10  11503.31  26.45
959.2  43506.45  11453.54  26.33
960.1  43588.22  11420.42  26.20
961.1  43692.83  11386.83  26.06
962.1  43658.44  11347.75  25.99
963.1  43782.00  11335.89  25.89
964.1  43817.42  11327.91  25.85
965.1  43908.74  11357.32  25.87
966.1  44007.38  11290.05  25.65
967.0  44141.86  11301.83  25.60
968.0  44131.86  11284.15  25.57
969.0  44255.20  11269.24  25.46
970.0  44255.36  11277.58  25.48
971.0  44316.83  11260.35  25.41
971.9  44400.90  11231.70  25.30
972.9  44577.14  11181.57  25.08
973.9  44494.78  11103.58  24.95
974.9  44573.29  11044.12  24.78
975.8  44702.44  10959.43  24.52
976.8  44666.28  10865.09  24.33
977.8  44950.93  10780.58  23.98
978.8  44877.90  10747.32  23.95
979.7  45104.10  10699.09  23.72
980.7  45212.81  10619.90  23.49
981.7  45433.99  10602.71  23.34
982.6  45657.51  10592.61  23.20
983.6  46147.45  10664.12  23.11
984.6  46551.05  10787.45  23.17
985.5  47031.84  10882.42  23.14
986.5  47664.14  11018.87  23.12
987.5  48852.12  11102.48  22.73
988.4  49722.20  11381.33  22.89
989.4  51183.38  11697.28  22.85
990.4  52549.20  11731.12  22.32
991.3  54023.93  12156.81  22.50
992.3  54777.10  12298.76  22.45
993.2  55874.36  12536.20  22.44
994.2  57686.85  12734.97  22.08
995.2  57633.14  12916.16  22.41
996.1  59292.71  13162.57  22.20
997.1  59931.56  12626.88  21.07
998.0  60640.20  12847.50  21.19
999.0  59258.53  12983.88  21.91
1000.0  60377.42  12913.01  21.39
1000.9  59810.48  12985.17  21.71
1001.9  59598.95  12703.63  21.32
1002.8  60212.52  12432.77  20.65
1003.8  59788.51  12583.23  21.05
1004.8  59326.80  12975.83  21.87
961.5  55398.21  13567.57  24.49
965.5  54418.85  13647.36  25.08
969.5  52458.23  13426.05  25.59
973.4  50487.36  12997.49  25.74
977.4  48611.32  12443.24  25.60
981.4  47578.80  12071.66  25.37
985.3  47203.20  11892.58  25.19
989.3  47137.31  11812.23  25.06
993.3  47133.16  11828.19  25.10
997.2  47029.21  11871.40  25.24
1001.2  46955.35  11977.12  25.51
1005.2  46914.32  12120.90  25.84
1009.1  47038.13  12312.01  26.17
1013.1  47236.75  12530.77  26.53
1017.1  47375.30  12729.76  26.87
1021.0  47429.61  12888.62  27.17
1025.0  47461.87  13054.63  27.51
1029.0  47354.18  13176.50  27.83
1032.9  47271.77  13316.12  28.17
1036.9  47308.70  13508.05  28.55
1040.9  47476.08  13717.93  28.89
1044.8  47747.63  13956.57  29.23
1048.8  47970.59  14174.39  29.55
1052.7  48104.60  14348.43  29.83
1056.7  48183.46  14474.16  30.04
1060.7  48250.82  14584.41  30.23
1064.6  48272.17  14671.77  30.39
1068.6  48190.54  14676.97  30.46
1072.5  48116.11  14659.48  30.47
1076.5  48076.67  14648.67  30.47
1080.4  48048.88  14610.34  30.41
1084.4  48150.59  14558.14  30.23
1088.3  48279.53  14497.32  30.03
1092.3  48252.92  14386.82  29.82
1096.2  48221.83  14266.68  29.59
1100.2  48245.69  14160.95  29.35
1104.1  48124.97  14008.30  29.11
1108.1  48059.38  13868.10  28.86
1112.0  47955.87  13686.42  28.54
1116.0  47754.46  13438.71  28.14
1119.9  47569.76  13173.92  27.69
1123.9  47623.80  12919.93  27.13
1127.8  47592.96  12540.16  26.35
1131.8  47556.42  12061.19  25.36
1135.7  47568.82  11502.38  24.18
1139.6  47554.30  10891.54  22.90
1143.6  47510.71  10334.37  21.75
1147.5  47481.98  9878.34  20.80
1151.4  47337.52  9502.63  20.07
1155.4  47322.86  9274.17  19.60
1159.3  47329.81  9126.36  19.28
1163.2  47159.49  8994.89  19.07
1167.2  47113.86  8923.16  18.94
1171.1  47117.13  8864.34  18.81
1175.0  47022.16  8803.03  18.72
1179.0  46962.63  8755.02  18.64
1182.9  47045.30  8728.22  18.55
1186.8  47019.62  8686.94  18.48
1190.7  46784.64  8607.35  18.40
1194.7  46508.35  8527.92  18.34
1198.6  46264.68  8485.79  18.34
1202.5  46100.54  8469.21  18.37
1206.4  45962.62  8457.48  18.40
1210.3  45829.98  8470.86  18.48
1214.2  45707.13  8485.12  18.56
1218.2  45554.16  8489.58  18.64
1222.1  45384.95  8519.37  18.77
1226.0  45257.55  8570.41  18.94
1229.9  45156.00  8614.62  19.08
1233.8  45033.17  8638.43  19.18
1237.7  44950.68  8663.43  19.27
1241.6  44841.64  8683.55  19.36
1245.5  44683.61  8689.40  19.45
1249.4  44538.65  8688.50  19.51
1253.3  44401.40  8691.25  19.57
1257.2  44324.52  8707.36  19.64
1261.1  44209.48  8713.01  19.71
1265.0  44086.55  8701.62  19.74
1268.9  43910.05  8654.82  19.71
1272.8  43969.80  8649.75  19.67
1276.7  44155.69  8657.53  19.61
1280.6  44249.88  8623.01  19.49
1284.5  44188.89  8555.49  19.36
1288.4  44167.03  8486.96  19.22
1292.3  44060.50  8386.58  19.03
1296.2  43934.23  8259.60  18.80
1300.1  43787.98  8106.31  18.51
1303.9  43564.57  7935.17  18.21
1307.8  43339.22  7751.90  17.89
1311.7  43109.06  7551.04  17.52
1315.6  42877.90  7337.63  17.11
1319.5  42633.84  7109.89  16.68
1323.3  42417.44  6876.87  16.21
1327.2  42218.70  6643.01  15.73
1331.1  42002.86  6408.72  15.26
1335.0  41739.72  6172.75  14.79
1338.8  41543.11  5961.73  14.35
1342.7  41389.31  5768.74  13.94
1346.5  41042.00  5567.86  13.57
1350.4  40741.74  5385.17  13.22
1354.3  40332.24  5185.81  12.86
1358.1  39895.31  4991.68  12.51
1362.0  39644.33  4823.36  12.17
1365.8  39567.12  4685.73  11.84
1369.7  39683.68  4554.22  11.48
1373.5  39615.26  4350.61  10.98
1377.4  39354.79  4078.42  10.36
1381.2  39167.92  3771.52  9.63
1385.1  39160.09  3472.94  8.87
1389.0  39060.88  3181.15  8.14
1392.8  38834.72  2881.33  7.42
