/*** Spectra Vista SIG Data ***/
name= AOHDB.sig
comm= Averaged Ref/Tar of files: AOHDB1,AOHDB2,AOHDB3
data=
346.4  509.60  87.48  17.17
347.9  540.69  89.73  16.60
349.5  587.60  91.31  15.54
351.1  632.32  95.89  15.16
352.6  689.43  99.09  14.37
354.2  733.04  103.19  14.08
355.7  791.36  110.46  13.96
357.3  853.00  116.05  13.60
358.8  856.28  116.50  13.61
360.4  925.10  123.58  13.36
361.9  965.82  126.30  13.08
363.5  1017.98  128.81  12.65
365.1  1061.06  132.00  12.44
366.6  1110.56  135.34  12.19
368.2  1180.72  136.99  11.60
369.7  1238.53  140.61  11.35
371.3  1318.10  146.19  11.09
372.8  1388.87  150.51  10.84
374.4  1466.28  157.76  10.76
375.9  1500.53  161.09  10.74
377.4  1552.53  163.71  10.54
379.0  1613.53  166.76  10.34
380.5  1659.80  169.88  10.23
382.1  1714.89  171.59  10.01
383.6  1771.88  172.18  9.72
385.2  1856.25  176.18  9.49
386.7  1945.79  183.75  9.44
388.3  2039.94  192.95  9.46
389.8  2122.80  198.74  9.36
391.3  2214.08  208.69  9.43
392.9  2288.33  215.84  9.43
394.4  2354.22  224.94  9.55
395.9  2427.22  233.41  9.62
397.5  2550.62  245.91  9.64
399.0  2669.76  251.73  9.43
400.6  2745.10  254.14  9.26
402.1  2796.72  255.07  9.12
403.6  2853.82  256.21  8.98
405.1  2922.52  259.12  8.87
406.7  3030.72  268.35  8.85
408.2  3137.80  276.51  8.81
409.7  3232.32  285.97  8.85
411.3  3343.05  295.75  8.85
412.8  3437.29  306.68  8.92
414.3  3549.69  317.68  8.95
415.8  3661.67  330.33  9.02
417.4  3782.35  340.20  8.99
418.9  3871.74  350.66  9.06
420.4  3954.77  355.76  9.00
421.9  4021.23  363.00  9.03
423.5  4094.81  369.71  9.03
425.0  4161.62  375.78  9.03
426.5  4254.13  384.13  9.03
428.0  4372.51  393.94  9.01
429.5  4502.35  405.01  9.00
431.1  4651.74  418.74  9.00
432.6  4819.07  434.48  9.02
434.1  4979.98  450.84  9.05
435.6  5123.24  462.85  9.03
437.1  5266.95  478.92  9.09
438.6  5394.58  492.04  9.12
440.1  5529.19  506.07  9.15
441.6  5674.42  520.78  9.18
443.1  5817.15  535.28  9.20
444.7  5954.71  551.42  9.26
446.2  6069.42  566.39  9.33
447.7  6179.08  578.64  9.36
449.2  6300.00  593.14  9.41
450.7  6402.24  603.75  9.43
452.2  6534.28  615.70  9.42
453.7  6659.06  627.17  9.42
455.2  6824.59  642.73  9.42
456.7  7018.88  663.29  9.45
458.2  7232.32  685.37  9.48
459.7  7447.42  707.00  9.49
461.2  7655.98  728.83  9.52
462.7  7843.78  749.89  9.56
464.2  8027.60  770.55  9.60
465.7  8224.08  791.68  9.63
467.2  8385.95  812.35  9.69
468.7  8573.33  834.53  9.73
470.2  8702.56  850.67  9.77
471.7  8869.83  872.89  9.84
473.2  9123.26  902.39  9.89
474.6  9341.89  920.13  9.85
476.1  9426.93  929.69  9.86
477.6  9488.00  939.21  9.90
479.1  9560.98  947.82  9.91
480.6  9641.27  958.94  9.95
482.1  9773.07  975.49  9.98
483.6  9944.90  994.20  10.00
485.1  10136.02  1016.45  10.03
486.6  10362.78  1041.66  10.05
488.0  10601.50  1068.17  10.08
489.5  10844.19  1097.77  10.12
491.0  11089.16  1126.49  10.16
492.5  11344.86  1157.54  10.20
494.0  11610.14  1189.41  10.24
495.4  11833.25  1218.47  10.30
496.9  12059.63  1249.83  10.36
498.4  12283.04  1280.54  10.43
499.9  12508.56  1312.40  10.49
501.4  12718.72  1341.67  10.55
502.8  12916.21  1375.34  10.65
504.3  13099.80  1405.08  10.73
505.8  13282.27  1435.93  10.81
507.2  13403.00  1462.85  10.91
508.7  13498.87  1485.41  11.00
510.2  13586.00  1509.89  11.11
511.6  13641.75  1529.24  11.21
513.1  13747.62  1552.85  11.30
514.6  13864.04  1580.18  11.40
516.0  13977.18  1605.44  11.49
517.5  14146.21  1638.43  11.58
519.0  14348.36  1673.53  11.66
520.5  14540.24  1710.30  11.76
521.9  14783.40  1752.25  11.85
523.4  15052.02  1796.29  11.93
524.8  15313.21  1842.72  12.03
526.3  15607.24  1892.09  12.12
527.8  15911.63  1942.67  12.21
529.2  16185.74  1989.40  12.29
530.7  16491.27  2041.31  12.38
532.1  16760.22  2090.98  12.48
533.6  17078.82  2143.50  12.55
535.0  17401.81  2198.66  12.63
536.5  17719.90  2253.51  12.72
538.0  18056.53  2311.16  12.80
539.4  18361.34  2366.84  12.89
540.9  18739.21  2432.16  12.98
542.3  19050.31  2494.50  13.09
543.8  19287.30  2544.74  13.19
545.2  19369.70  2577.55  13.31
546.6  19396.43  2598.53  13.40
548.1  19443.68  2623.86  13.49
549.5  19482.74  2648.47  13.59
551.0  19515.76  2672.60  13.69
552.4  19587.02  2702.89  13.80
553.9  19631.53  2729.39  13.90
555.3  19695.20  2758.74  14.01
556.8  19821.95  2798.03  14.12
558.2  19946.25  2834.89  14.21
559.6  20101.01  2877.88  14.32
561.1  20303.83  2926.19  14.41
562.5  20522.69  2976.38  14.50
564.0  20804.71  3037.18  14.60
565.4  21062.59  3094.16  14.69
566.8  21380.78  3160.62  14.78
568.3  21683.20  3224.05  14.87
569.7  22004.66  3290.76  14.95
571.1  22310.69  3355.07  15.04
572.6  22618.98  3419.49  15.12
574.0  22912.45  3485.68  15.21
575.4  23192.44  3547.91  15.30
576.9  23464.40  3610.07  15.39
578.3  23707.02  3664.73  15.46
579.7  23939.39  3721.38  15.55
581.1  24125.33  3770.44  15.63
582.6  24330.68  3815.52  15.68
584.0  24502.25  3862.92  15.77
585.4  24752.47  3924.53  15.86
586.8  25079.51  4003.32  15.96
588.3  25449.84  4087.51  16.06
589.7  25770.42  4165.98  16.17
591.1  25981.68  4226.57  16.27
592.5  26101.71  4267.38  16.35
594.0  26178.98  4302.95  16.44
595.4  26210.14  4327.01  16.51
596.8  26235.50  4354.21  16.60
598.2  26268.80  4381.77  16.68
599.6  26279.34  4408.41  16.78
601.0  26364.93  4443.74  16.85
602.4  26438.01  4483.78  16.96
603.9  26565.68  4528.63  17.05
605.3  26693.52  4573.66  17.13
606.7  26821.80  4615.92  17.21
608.1  27039.32  4673.57  17.28
609.5  27272.70  4734.15  17.36
610.9  27544.77  4801.29  17.43
612.3  27790.61  4863.91  17.50
613.7  28125.45  4944.93  17.58
615.1  28362.96  5005.37  17.65
616.5  28595.75  5065.06  17.71
617.9  28955.04  5154.17  17.80
619.3  29298.21  5237.76  17.88
620.7  29710.08  5335.96  17.96
622.1  30133.92  5447.02  18.08
623.5  30607.01  5582.39  18.24
624.9  31141.95  5727.49  18.39
626.3  31497.28  5830.43  18.51
627.7  31200.27  5806.97  18.61
629.1  30921.17  5775.79  18.68
630.5  30817.44  5770.13  18.72
631.9  30840.18  5784.76  18.76
633.3  30863.63  5792.96  18.77
634.7  30994.83  5844.60  18.86
636.1  31064.15  5891.49  18.97
637.5  31161.24  5910.89  18.97
638.9  31308.60  5933.48  18.95
640.2  31431.23  5976.58  19.01
641.6  31487.04  6004.75  19.07
643.0  31490.91  6017.56  19.11
644.4  31509.42  6061.58  19.24
645.8  31452.93  6098.24  19.39
647.2  31586.36  6166.77  19.52
648.5  31679.28  6231.17  19.67
649.9  31556.53  6260.27  19.84
651.3  31465.30  6308.36  20.05
652.7  31319.10  6355.28  20.29
654.1  31150.16  6313.84  20.27
655.5  30947.14  6257.18  20.22
656.8  30748.88  6206.84  20.19
658.2  30904.18  6234.01  20.17
659.6  31236.93  6309.81  20.20
660.9  31508.12  6376.36  20.24
662.3  31804.25  6440.94  20.25
663.7  32098.50  6508.88  20.28
665.0  32333.59  6571.81  20.33
666.4  32567.12  6636.63  20.38
667.8  32866.99  6709.03  20.41
669.1  33104.46  6776.99  20.47
670.5  33379.22  6858.99  20.55
671.9  33562.08  6923.08  20.63
673.2  33810.67  6997.86  20.70
674.6  34038.34  7078.79  20.80
676.0  34321.29  7176.10  20.91
677.3  34604.51  7270.63  21.01
678.7  34908.80  7367.52  21.11
680.0  35301.05  7490.90  21.22
681.4  35703.97  7621.25  21.35
682.8  36101.22  7757.30  21.49
684.1  36494.64  7898.44  21.64
685.5  36842.34  8037.64  21.82
686.8  37207.50  8186.55  22.00
688.2  37523.32  8322.32  22.18
689.5  37633.63  8428.03  22.39
690.9  37733.24  8525.34  22.59
692.2  37822.45  8610.84  22.77
693.6  37897.89  8701.64  22.96
694.9  37892.02  8771.27  23.15
696.2  37937.93  8854.77  23.34
697.6  37984.88  8932.49  23.52
698.9  38031.84  9009.79  23.69
700.3  38100.90  9089.75  23.86
701.6  38185.43  9172.65  24.02
703.0  38278.69  9252.79  24.17
704.3  38312.19  9321.60  24.33
705.6  38316.00  9384.26  24.49
707.0  38355.57  9446.14  24.63
708.3  38282.32  9491.68  24.79
709.6  38200.84  9528.51  24.94
711.0  38091.16  9560.70  25.10
712.3  37972.20  9589.70  25.25
713.6  37939.72  9635.55  25.40
714.9  37869.64  9676.91  25.55
716.3  37874.53  9731.29  25.69
717.6  37897.91  9796.35  25.85
718.9  37843.48  9842.48  26.01
720.2  37666.14  9854.74  26.16
721.6  37540.45  9876.77  26.31
722.9  37376.81  9887.82  26.45
724.2  37165.28  9889.43  26.61
725.5  37011.21  9899.78  26.75
726.8  36851.77  9919.23  26.92
728.1  36784.33  9950.33  27.05
729.5  36704.45  9985.52  27.21
730.8  36655.13  10027.46  27.36
732.1  36566.03  10053.01  27.49
733.4  36521.23  10097.36  27.65
734.7  36471.61  10134.65  27.79
736.0  36477.63  10191.31  27.94
737.3  36422.11  10233.23  28.10
738.6  36507.24  10304.09  28.22
739.9  36671.85  10398.62  28.36
741.2  36800.40  10483.93  28.49
742.5  37036.00  10599.96  28.62
743.8  37424.89  10759.21  28.75
745.1  38027.84  10983.14  28.88
746.4  38727.48  11249.00  29.05
747.7  39457.81  11536.62  29.24
749.0  40154.39  11811.02  29.41
750.3  40579.45  12008.63  29.59
751.6  40511.83  12067.29  29.79
752.9  40115.32  12010.80  29.94
754.2  39694.73  11936.52  30.07
755.4  39230.44  11860.41  30.23
756.7  39066.81  11866.84  30.38
758.0  39084.19  11921.41  30.50
759.3  39316.84  12040.77  30.62
760.6  39636.52  12192.90  30.76
761.9  39943.49  12343.01  30.90
763.1  40110.78  12451.08  31.04
764.4  40321.61  12572.80  31.18
765.7  40465.75  12673.48  31.32
767.0  40578.92  12770.11  31.47
768.2  40686.24  12858.72  31.60
769.5  40752.55  12945.49  31.77
770.8  40925.18  13053.11  31.90
772.0  40953.03  13125.48  32.05
773.3  41022.08  13207.06  32.20
774.6  41132.00  13290.04  32.31
775.8  41228.36  13375.77  32.44
777.1  41259.66  13442.09  32.58
778.4  41219.82  13491.13  32.73
779.6  41183.78  13529.15  32.85
780.9  41118.67  13564.27  32.99
782.1  40961.21  13584.77  33.16
783.4  40973.23  13630.10  33.27
784.6  40995.27  13689.15  33.39
785.9  41272.84  13829.27  33.51
787.1  41783.77  14071.03  33.68
788.4  42181.04  14300.26  33.90
789.6  42164.82  14374.86  34.09
790.9  41815.68  14312.84  34.23
792.1  41384.03  14224.55  34.37
793.4  40959.90  14148.74  34.54
794.6  40691.26  14103.31  34.66
795.8  40454.28  14071.86  34.78
797.1  40205.10  14038.54  34.92
798.3  40014.70  14030.25  35.06
799.5  39903.53  14041.46  35.19
800.8  39793.16  14053.64  35.32
802.0  39655.47  14072.57  35.49
803.2  39512.33  14078.90  35.63
804.5  39421.13  14101.76  35.77
805.7  39308.06  14115.93  35.91
806.9  39204.60  14133.09  36.05
808.1  39113.53  14151.42  36.18
809.4  39046.70  14183.32  36.32
810.6  38976.82  14209.65  36.46
811.8  38963.80  14259.19  36.60
813.0  38991.74  14314.58  36.71
814.2  39008.90  14386.74  36.88
815.4  39109.53  14485.13  37.04
816.6  39150.70  14566.87  37.21
817.9  39211.10  14638.64  37.33
819.1  39145.66  14687.16  37.52
820.3  39035.80  14711.31  37.69
821.5  38960.04  14739.12  37.83
822.7  38891.50  14767.98  37.97
823.9  38901.12  14829.88  38.12
825.1  38924.00  14881.19  38.23
826.3  38961.03  14945.13  38.36
827.5  39002.39  15023.42  38.52
828.7  39065.52  15102.72  38.66
829.9  39110.12  15171.25  38.79
831.0  39196.89  15258.16  38.93
832.2  39300.50  15351.32  39.06
833.4  39367.91  15424.28  39.18
834.6  39425.00  15511.57  39.34
835.8  39502.58  15592.19  39.47
837.0  39576.61  15677.13  39.61
838.1  39726.71  15784.38  39.73
839.3  39813.87  15874.25  39.87
840.5  39909.99  15964.99  40.00
841.7  40029.93  16062.26  40.13
842.9  40148.84  16172.82  40.28
844.0  40248.53  16267.80  40.42
845.2  40372.34  16376.41  40.56
846.4  40487.16  16483.55  40.71
847.5  40672.16  16623.84  40.87
848.7  40829.86  16743.14  41.01
849.9  41005.09  16873.60  41.15
851.0  41071.91  16960.16  41.29
852.2  41153.43  17042.13  41.41
853.3  41112.20  17094.99  41.58
854.5  41128.14  17145.41  41.69
855.6  41120.58  17188.72  41.80
856.8  41138.60  17250.38  41.93
857.9  41138.86  17298.56  42.05
859.1  41269.27  17380.67  42.12
860.2  41263.79  17427.42  42.23
861.4  41297.48  17498.74  42.37
862.5  41334.46  17557.95  42.48
863.7  41412.31  17628.14  42.57
864.8  41409.55  17679.25  42.69
865.9  41355.43  17693.30  42.78
867.1  41397.70  17754.20  42.89
868.2  41392.87  17803.04  43.01
869.3  41417.56  17853.38  43.11
870.5  41374.83  17865.04  43.18
871.6  41370.17  17908.12  43.29
872.7  41437.28  17978.18  43.39
873.9  41452.77  18023.77  43.48
875.0  41442.92  18065.33  43.59
876.1  41436.88  18099.85  43.68
877.2  41470.48  18144.77  43.75
878.3  41455.17  18194.18  43.89
879.4  41485.84  18251.93  44.00
880.5  41535.24  18299.91  44.06
881.7  41506.40  18341.57  44.19
882.8  41561.63  18406.23  44.29
883.9  41583.53  18455.56  44.38
885.0  41552.88  18484.97  44.49
886.1  41525.35  18508.80  44.57
887.2  41418.75  18489.82  44.64
888.3  41323.53  18486.78  44.74
889.4  41256.54  18488.06  44.81
890.5  41170.86  18495.67  44.92
891.6  41130.57  18504.55  44.99
892.7  41117.88  18529.28  45.06
893.8  41152.03  18572.17  45.13
894.9  41136.74  18617.29  45.26
896.0  41154.97  18649.91  45.32
897.0  41130.79  18678.58  45.41
898.1  41131.24  18708.74  45.49
899.2  41167.61  18754.10  45.56
900.3  41106.29  18761.85  45.64
901.4  41031.62  18764.50  45.73
902.4  41039.82  18803.00  45.82
903.5  40990.01  18807.10  45.88
904.6  41009.70  18835.94  45.93
905.7  41021.83  18870.16  46.00
906.7  41009.77  18898.73  46.08
907.8  41064.40  18958.07  46.17
908.9  40978.70  18946.54  46.24
909.9  40960.20  18978.95  46.34
911.0  40907.09  18970.32  46.37
912.1  40828.36  18971.72  46.47
913.1  40768.17  18970.26  46.53
914.2  40696.13  18961.52  46.59
915.2  40635.99  18985.66  46.72
916.3  40655.60  19009.24  46.76
917.3  40632.26  19043.21  46.87
918.4  40550.77  19032.00  46.93
919.4  40559.61  19047.37  46.96
920.5  40548.69  19072.62  47.04
921.5  40555.32  19107.07  47.11
922.6  40490.44  19115.08  47.21
923.6  40544.38  19146.56  47.22
924.7  40570.50  19182.30  47.28
925.7  40565.72  19219.30  47.38
926.7  40574.37  19274.29  47.50
927.8  40621.06  19325.66  47.58
928.8  40761.44  19406.44  47.61
929.9  40882.65  19480.78  47.65
930.9  41068.75  19584.06  47.69
931.9  41247.91  19707.51  47.78
932.9  41562.93  19859.78  47.78
934.0  41604.94  19915.06  47.87
935.0  41607.94  19970.55  48.00
936.0  41635.18  19970.67  47.97
937.0  41580.96  19980.43  48.05
938.1  41536.75  19980.80  48.10
939.1  41476.40  20004.33  48.23
940.1  41575.45  20079.56  48.30
941.1  41742.38  20197.42  48.39
942.1  42012.43  20329.27  48.39
943.1  42169.31  20429.82  48.45
944.1  42412.61  20565.14  48.49
945.2  42427.84  20600.24  48.55
946.2  42550.21  20690.24  48.63
947.2  42612.75  20741.95  48.68
948.2  42786.80  20842.25  48.71
949.2  42878.61  20907.52  48.76
950.2  42946.17  20962.60  48.81
951.2  43011.36  21043.96  48.93
952.2  43098.25  21108.46  48.98
953.2  43297.80  21203.31  48.97
954.2  43385.85  21289.92  49.07
955.2  43419.55  21326.22  49.12
956.2  43437.41  21369.07  49.20
957.2  43536.56  21427.16  49.22
958.2  43595.39  21501.98  49.32
959.2  43678.50  21553.98  49.35
960.1  43758.42  21598.38  49.36
961.1  43861.10  21650.29  49.36
962.1  43890.00  21698.00  49.44
963.1  43897.54  21741.41  49.53
964.1  44016.64  21815.32  49.56
965.1  44158.12  21901.30  49.60
966.1  44125.42  21930.91  49.70
967.0  44256.50  22008.89  49.73
968.0  44325.88  22050.00  49.75
969.0  44340.80  22103.35  49.85
970.0  44402.51  22160.79  49.91
971.0  44499.11  22206.26  49.90
971.9  44558.35  22261.86  49.96
972.9  44650.90  22358.23  50.07
973.9  44717.30  22405.72  50.11
974.9  44842.61  22465.30  50.10
975.8  44863.27  22548.95  50.26
976.8  45006.25  22620.11  50.26
977.8  45014.65  22676.17  50.38
978.8  45025.45  22731.78  50.49
979.7  45275.23  22833.19  50.43
980.7  45358.61  22944.41  50.58
981.7  45578.92  23048.87  50.57
982.6  45753.53  23179.23  50.66
983.6  46290.38  23397.10  50.54
984.6  46671.81  23579.43  50.52
985.5  47008.92  23850.55  50.74
986.5  47743.18  24235.20  50.76
987.5  48791.01  24520.77  50.26
988.4  49651.07  24989.14  50.33
989.4  50892.09  25491.82  50.09
990.4  51868.01  25992.39  50.11
991.3  53683.09  26415.48  49.21
992.3  54255.42  26997.29  49.76
993.2  55949.16  27854.90  49.79
994.2  57602.51  28286.80  49.11
995.2  58938.74  28536.79  48.42
996.1  59700.22  29096.21  48.74
997.1  60040.13  29032.07  48.35
998.0  59269.80  28892.60  48.75
999.0  59619.86  29243.84  49.05
1000.0  59877.40  29101.16  48.60
1000.9  60335.13  29249.42  48.48
1001.9  59869.24  29245.38  48.85
1002.8  59515.62  28600.95  48.06
1003.8  60370.40  28832.32  47.76
1004.8  59631.04  28689.83  48.11
961.5  53915.77  24718.11  45.85
965.5  52712.93  24252.50  46.01
969.5  50718.22  23415.02  46.17
973.4  48639.16  22689.26  46.65
977.4  46918.09  22149.75  47.21
981.4  46137.59  21987.89  47.66
985.3  45940.08  21984.45  47.85
989.3  46116.30  22038.78  47.79
993.3  46368.56  22059.15  47.57
997.2  46443.45  21997.73  47.36
1001.2  46427.12  21958.43  47.30
1005.2  46353.06  21974.78  47.41
1009.1  46410.03  22082.21  47.58
1013.1  46541.71  22235.30  47.78
1017.1  46660.38  22355.13  47.91
1021.0  46683.88  22398.10  47.98
1025.0  46690.17  22439.59  48.06
1029.0  46538.32  22423.52  48.18
1032.9  46395.87  22407.32  48.30
1036.9  46403.04  22477.35  48.44
1040.9  46511.81  22592.32  48.57
1044.8  46708.88  22747.67  48.70
1048.8  46865.39  22883.37  48.83
1052.7  46976.02  22976.77  48.91
1056.7  47013.77  23028.73  48.98
1060.7  47013.98  23076.75  49.08
1064.6  47013.45  23131.57  49.20
1068.6  46923.84  23123.63  49.28
1072.5  46833.91  23115.44  49.36
1076.5  46780.43  23143.14  49.47
1080.4  46765.50  23168.62  49.54
1084.4  46856.06  23243.30  49.61
1088.3  46955.73  23332.02  49.69
1092.3  46940.09  23332.77  49.71
1096.2  46923.60  23343.21  49.75
1100.2  46952.19  23397.49  49.83
1104.1  46849.01  23368.55  49.88
1108.1  46805.01  23370.84  49.93
1112.0  46714.32  23338.47  49.96
1116.0  46521.35  23252.09  49.98
1119.9  46361.13  23179.92  50.00
1123.9  46437.55  23217.49  50.00
1127.8  46403.84  23197.44  49.99
1131.8  46375.32  23173.69  49.97
1135.7  46408.20  23173.09  49.93
1139.6  46408.16  23126.36  49.83
1143.6  46363.98  23053.88  49.72
1147.5  46332.91  22989.09  49.62
1151.4  46200.71  22854.81  49.47
1155.4  46198.31  22812.82  49.38
1159.3  46197.80  22792.87  49.34
1163.2  46035.87  22689.82  49.29
1167.2  46009.38  22659.54  49.25
1171.1  46019.76  22642.92  49.20
1175.0  45958.75  22594.94  49.16
1179.0  45913.23  22570.76  49.16
1182.9  45999.54  22608.63  49.15
1186.8  45988.06  22596.74  49.14
1190.7  45779.79  22481.46  49.11
1194.7  45530.16  22361.75  49.11
1198.6  45302.57  22266.09  49.15
1202.5  45139.18  22205.77  49.19
1206.4  45005.71  22167.08  49.25
1210.3  44900.78  22147.29  49.32
1214.2  44785.42  22150.21  49.46
1218.2  44629.81  22133.36  49.59
1222.1  44485.42  22108.44  49.70
1226.0  44377.93  22105.62  49.81
1229.9  44289.98  22106.30  49.91
1233.8  44181.54  22091.29  50.00
1237.7  44120.54  22083.41  50.05
1241.6  44040.77  22058.50  50.09
1245.5  43881.03  22004.97  50.15
1249.4  43740.98  21965.33  50.22
1253.3  43615.60  21924.09  50.27
1257.2  43536.78  21888.07  50.27
1261.1  43435.76  21835.01  50.27
1265.0  43311.12  21783.51  50.30
1268.9  43129.67  21704.94  50.32
1272.8  43182.25  21735.05  50.33
1276.7  43362.60  21825.98  50.33
1280.6  43436.73  21872.13  50.35
1284.5  43348.96  21836.29  50.37
1288.4  43320.38  21822.94  50.38
1292.3  43195.17  21769.92  50.40
1296.2  43044.04  21700.24  50.41
1300.1  42878.35  21605.21  50.39
1303.9  42645.68  21450.59  50.30
1307.8  42405.51  21291.60  50.21
1311.7  42160.76  21136.51  50.13
1315.6  41918.32  20969.43  50.02
1319.5  41670.14  20785.87  49.88
1323.3  41446.79  20607.94  49.72
1327.2  41244.48  20442.80  49.56
1331.1  41014.94  20256.98  49.39
1335.0  40724.57  20025.41  49.17
1338.8  40519.89  19815.95  48.90
1342.7  40364.88  19596.12  48.55
1346.5  40028.10  19232.18  48.05
1350.4  39754.54  18861.28  47.44
1354.3  39376.48  18456.42  46.87
1358.1  38942.34  18092.07  46.46
1362.0  38671.85  17886.96  46.25
