/*** Spectra Vista SIG Data ***/
name= GT2.sig
comm= Averaged Ref/Tar of files: GD4T4,GD4T5,GD4T6
data=
346.4  1.00  104.04  10404.33
347.9  1.00  107.10  10709.67
349.5  1.00  104.00  10400.00
351.1  1.00  106.91  10691.00
352.6  1.00  113.01  11301.00
354.2  1.00  118.25  11824.67
355.7  1.00  119.43  11943.33
357.3  1.00  121.59  12159.33
358.8  1.00  118.36  11836.33
360.4  1.00  131.79  13178.67
361.9  1.00  128.62  12862.00
363.5  1.00  129.73  12973.00
365.1  1.00  133.61  13361.33
366.6  1.00  128.43  12843.33
368.2  1.00  133.85  13385.00
369.7  1.00  127.55  12755.00
371.3  1.00  129.94  12994.33
372.8  1.00  135.46  13545.67
374.4  1.00  137.51  13750.67
375.9  1.00  139.02  13902.00
377.4  1.00  140.94  14094.33
379.0  1.00  142.58  14257.67
380.5  1.00  139.10  13910.33
382.1  1.00  135.93  13593.00
383.6  1.00  133.43  13343.33
385.2  1.00  136.40  13640.00
386.7  1.00  138.62  13862.33
388.3  1.00  145.66  14565.67
389.8  1.00  146.77  14676.67
391.3  1.00  153.73  15373.33
392.9  1.00  153.63  15363.00
394.4  1.00  163.02  16301.67
395.9  1.00  173.74  17374.33
397.5  1.00  183.46  18346.33
399.0  1.00  184.58  18457.67
400.6  1.00  181.87  18187.33
402.1  1.00  177.16  17716.00
403.6  1.00  174.86  17486.00
405.1  1.00  172.74  17274.33
406.7  1.00  183.38  18338.33
408.2  1.00  190.38  19037.67
409.7  1.00  195.33  19533.00
411.3  1.00  200.73  20073.33
412.8  1.00  212.35  21235.33
414.3  1.00  217.67  21766.67
415.8  1.00  229.67  22966.67
417.4  1.00  239.17  23917.00
418.9  1.00  243.56  24355.67
420.4  1.00  252.91  25290.67
421.9  1.00  257.49  25749.00
423.5  1.00  258.41  25840.67
425.0  1.00  261.91  26191.00
426.5  1.00  264.31  26430.67
428.0  1.00  269.84  26983.67
429.5  1.00  270.71  27070.67
431.1  1.00  279.93  27993.33
432.6  1.00  290.43  29042.67
434.1  1.00  297.73  29773.33
435.6  1.00  307.02  30702.00
437.1  1.00  315.64  31564.00
438.6  1.00  326.72  32671.67
440.1  1.00  334.12  33411.67
441.6  1.00  341.50  34149.67
443.1  1.00  354.51  35451.00
444.7  1.00  368.53  36853.00
446.2  1.00  380.58  38058.33
447.7  1.00  398.42  39842.00
449.2  1.00  413.57  41357.00
450.7  1.00  430.70  43070.00
452.2  1.00  441.21  44120.67
453.7  1.00  454.20  45420.33
455.2  1.00  470.29  47029.33
456.7  1.00  486.00  48599.67
458.2  1.00  502.58  50258.00
459.7  1.00  521.03  52103.33
461.2  1.00  538.91  53891.00
462.7  1.00  553.95  55394.67
464.2  1.00  570.23  57022.67
465.7  1.00  587.78  58778.00
467.2  1.00  599.32  59931.67
468.7  1.00  616.27  61626.67
470.2  1.00  627.67  62767.00
471.7  1.00  646.63  64663.33
473.2  1.00  683.21  68320.67
474.6  1.00  702.44  70243.67
476.1  1.00  707.23  70723.33
477.6  1.00  702.09  70209.00
479.1  1.00  702.93  70292.67
480.6  1.00  714.11  71410.67
482.1  1.00  725.68  72568.00
483.6  1.00  738.52  73852.33
485.1  1.00  762.48  76247.67
486.6  1.00  783.99  78399.33
488.0  1.00  812.28  81228.33
489.5  1.00  842.17  84217.00
491.0  1.00  881.29  88129.00
492.5  1.00  921.67  92167.00
494.0  1.00  968.36  96835.67
495.4  1.00  1017.28  101728.00
496.9  1.00  1071.47  107147.33
498.4  1.00  1136.23  113623.00
499.9  1.00  1202.25  120225.00
501.4  1.00  1276.41  127641.00
502.8  1.00  1353.72  135371.67
504.3  1.00  1437.60  143760.00
505.8  1.00  1530.96  153095.67
507.2  1.00  1622.35  162235.00
508.7  1.00  1713.31  171331.33
510.2  1.00  1807.45  180745.00
511.6  1.00  1908.63  190862.67
513.1  1.00  2020.10  202010.00
514.6  1.00  2133.49  213349.33
516.0  1.00  2249.99  224999.33
517.5  1.00  2375.86  237586.33
519.0  1.00  2510.07  251006.67
520.5  1.00  2644.12  264411.67
521.9  1.00  2785.11  278511.00
523.4  1.00  2931.19  293118.67
524.8  1.00  3076.38  307638.00
526.3  1.00  3225.17  322516.67
527.8  1.00  3370.72  337072.33
529.2  1.00  3502.78  350278.33
530.7  1.00  3640.49  364049.33
532.1  1.00  3766.78  376678.33
533.6  1.00  3897.14  389714.33
535.0  1.00  4023.79  402379.00
536.5  1.00  4139.68  413968.00
538.0  1.00  4257.27  425727.00
539.4  1.00  4367.30  436730.00
540.9  1.00  4499.70  449970.00
542.3  1.00  4622.71  462270.67
543.8  1.00  4727.67  472767.33
545.2  1.00  4774.49  477449.00
546.6  1.00  4805.64  480564.00
548.1  1.00  4839.13  483913.00
549.5  1.00  4865.25  486525.33
551.0  1.00  4893.17  489316.67
552.4  1.00  4918.32  491832.00
553.9  1.00  4933.96  493395.67
555.3  1.00  4953.55  495355.00
556.8  1.00  4977.57  497756.67
558.2  1.00  4996.35  499635.33
559.6  1.00  5022.06  502206.00
561.1  1.00  5054.40  505440.00
562.5  1.00  5085.05  508505.33
564.0  1.00  5125.68  512568.00
565.4  1.00  5160.74  516073.67
566.8  1.00  5199.42  519942.33
568.3  1.00  5225.10  522510.33
569.7  1.00  5246.73  524672.67
571.1  1.00  5260.89  526088.67
572.6  1.00  5273.21  527320.67
574.0  1.00  5279.56  527956.00
575.4  1.00  5284.35  528435.33
576.9  1.00  5288.52  528851.67
578.3  1.00  5289.81  528981.00
579.7  1.00  5285.02  528501.67
581.1  1.00  5279.59  527959.00
582.6  1.00  5276.57  527657.00
584.0  1.00  5275.41  527540.67
585.4  1.00  5285.34  528534.00
586.8  1.00  5329.59  532958.67
588.3  1.00  5375.45  537545.00
589.7  1.00  5421.31  542131.00
591.1  1.00  5432.16  543216.33
592.5  1.00  5423.97  542397.00
594.0  1.00  5412.66  541265.67
595.4  1.00  5390.12  539012.33
596.8  1.00  5366.22  536621.67
598.2  1.00  5343.08  534308.33
599.6  1.00  5316.86  531686.33
601.0  1.00  5299.61  529961.33
602.4  1.00  5284.84  528483.67
603.9  1.00  5267.76  526775.67
605.3  1.00  5248.30  524830.33
606.7  1.00  5220.72  522072.00
608.1  1.00  5205.16  520516.00
609.5  1.00  5190.93  519093.00
610.9  1.00  5178.96  517896.33
612.3  1.00  5158.39  515839.33
613.7  1.00  5148.29  514829.00
615.1  1.00  5116.39  511639.00
616.5  1.00  5087.64  508764.00
617.9  1.00  5088.47  508847.33
619.3  1.00  5094.91  509491.33
620.7  1.00  5113.52  511352.00
622.1  1.00  5200.97  520096.67
623.5  1.00  5338.79  533879.00
624.9  1.00  5491.92  549192.00
626.3  1.00  5614.42  561442.33
627.7  1.00  5594.23  559422.67
629.1  1.00  5554.88  555487.67
630.5  1.00  5526.23  552623.33
631.9  1.00  5470.30  547029.67
633.3  1.00  5388.74  538873.67
634.7  1.00  5329.97  532997.00
636.1  1.00  5252.74  525274.00
637.5  1.00  5155.33  515532.67
638.9  1.00  5029.71  502971.33
640.2  1.00  4872.21  487221.00
641.6  1.00  4686.24  468624.00
643.0  1.00  4494.46  449446.00
644.4  1.00  4331.12  433112.00
645.8  1.00  4188.67  418866.67
647.2  1.00  4105.47  410547.00
648.5  1.00  4039.10  403909.67
649.9  1.00  3948.85  394885.00
651.3  1.00  3872.94  387294.00
652.7  1.00  3803.58  380358.00
654.1  1.00  3719.19  371919.33
655.5  1.00  3620.66  362065.67
656.8  1.00  3515.10  351510.00
658.2  1.00  3440.70  344070.00
659.6  1.00  3376.07  337606.67
660.9  1.00  3297.13  329713.00
662.3  1.00  3209.22  320922.00
663.7  1.00  3120.88  312088.00
665.0  1.00  3035.17  303517.33
666.4  1.00  2954.88  295487.67
667.8  1.00  2896.18  289618.00
669.1  1.00  2845.55  284554.67
670.5  1.00  2812.11  281211.33
671.9  1.00  2783.65  278364.67
673.2  1.00  2774.11  277411.33
674.6  1.00  2780.00  278000.33
676.0  1.00  2802.57  280257.33
677.3  1.00  2845.57  284557.00
678.7  1.00  2912.95  291295.00
680.0  1.00  3019.17  301916.67
681.4  1.00  3165.41  316540.67
682.8  1.00  3363.36  336336.00
684.1  1.00  3626.69  362669.00
685.5  1.00  3950.99  395099.33
686.8  1.00  4341.41  434140.67
688.2  1.00  4809.14  480913.67
689.5  1.00  5314.49  531449.33
690.9  1.00  5871.14  587114.00
692.2  1.00  6461.36  646136.00
693.6  1.00  7094.85  709484.67
694.9  1.00  7751.45  775145.33
696.2  1.00  8432.49  843249.33
697.6  1.00  9107.18  910717.67
698.9  1.00  9781.02  978102.33
700.3  1.00  10427.95  1042795.33
701.6  1.00  11059.71  1105971.33
703.0  1.00  11655.75  1165575.00
704.3  1.00  12214.67  1221467.33
705.6  1.00  12706.78  1270677.67
707.0  1.00  13193.04  1319303.67
708.3  1.00  13627.17  1362717.00
709.6  1.00  14020.55  1402054.67
711.0  1.00  14380.26  1438025.67
712.3  1.00  14707.74  1470774.00
713.6  1.00  15052.41  1505240.67
714.9  1.00  15341.80  1534180.33
716.3  1.00  15644.94  1564494.00
717.6  1.00  15946.98  1594698.00
718.9  1.00  16183.86  1618386.00
720.2  1.00  16362.76  1636276.33
721.6  1.00  16531.91  1653190.67
722.9  1.00  16656.35  1665635.00
724.2  1.00  16742.21  1674220.67
725.5  1.00  16837.45  1683744.67
726.8  1.00  16903.61  1690360.67
728.1  1.00  16992.01  1699201.33
729.5  1.00  17056.73  1705673.33
730.8  1.00  17125.07  1712507.33
732.1  1.00  17164.42  1716441.67
733.4  1.00  17219.95  1721994.67
734.7  1.00  17256.51  1725651.00
736.0  1.00  17318.24  1731823.67
737.3  1.00  17348.14  1734814.33
738.6  1.00  17447.50  1744750.33
739.9  1.00  17577.00  1757699.67
741.2  1.00  17694.77  1769477.00
742.5  1.00  17865.67  1786567.00
743.8  1.00  18104.24  1810424.33
745.1  1.00  18457.43  1845743.33
746.4  1.00  18885.78  1888577.67
747.7  1.00  19333.20  1933320.00
749.0  1.00  19769.46  1976945.67
750.3  1.00  20038.27  2003826.67
751.6  1.00  20056.26  2005626.33
752.9  1.00  19894.96  1989496.00
754.2  1.00  19694.05  1969405.33
755.4  1.00  19489.74  1948974.00
756.7  1.00  19426.41  1942641.33
758.0  1.00  19464.99  1946499.33
759.3  1.00  19622.47  1962246.67
760.6  1.00  19818.36  1981836.33
761.9  1.00  20006.45  2000645.33
763.1  1.00  20123.80  2012380.00
764.4  1.00  20255.17  2025517.33
765.7  1.00  20365.80  2036580.00
767.0  1.00  20466.70  2046669.67
768.2  1.00  20562.30  2056230.33
769.5  1.00  20623.93  2062393.00
770.8  1.00  20737.13  2073713.00
772.0  1.00  20779.37  2077937.33
773.3  1.00  20850.87  2085087.00
774.6  1.00  20922.97  2092297.00
775.8  1.00  20981.83  2098183.00
777.1  1.00  21021.24  2102123.67
778.4  1.00  21018.57  2101857.33
779.6  1.00  21018.16  2101816.33
780.9  1.00  21005.87  2100586.67
782.1  1.00  20954.91  2095491.33
783.4  1.00  20967.51  2096750.67
784.6  1.00  20994.83  2099482.67
785.9  1.00  21161.21  2116121.33
787.1  1.00  21457.41  2145741.33
788.4  1.00  21715.82  2171582.33
789.6  1.00  21738.56  2173856.00
790.9  1.00  21580.26  2158026.00
792.1  1.00  21367.89  2136789.33
793.4  1.00  21161.76  2116176.00
794.6  1.00  21015.39  2101539.33
795.8  1.00  20889.02  2088901.67
797.1  1.00  20769.89  2076989.00
798.3  1.00  20665.59  2066559.33
799.5  1.00  20622.60  2062260.33
800.8  1.00  20570.29  2057028.67
802.0  1.00  20511.16  2051115.67
803.2  1.00  20444.26  2044426.00
804.5  1.00  20410.35  2041034.67
805.7  1.00  20334.37  2033436.67
806.9  1.00  20270.79  2027079.33
808.1  1.00  20226.15  2022614.67
809.4  1.00  20173.73  2017372.67
810.6  1.00  20121.92  2012192.00
811.8  1.00  20095.83  2009583.33
813.0  1.00  20099.76  2009975.67
814.2  1.00  20108.98  2010898.33
815.4  1.00  20158.73  2015873.00
816.6  1.00  20174.17  2017417.33
817.9  1.00  20170.68  2017067.67
819.1  1.00  20131.43  2013142.67
820.3  1.00  20058.92  2005892.00
821.5  1.00  19989.00  1998900.00
822.7  1.00  19947.78  1994777.67
823.9  1.00  19901.14  1990114.00
825.1  1.00  19884.70  1988470.33
826.3  1.00  19836.80  1983679.67
827.5  1.00  19807.70  1980769.67
828.7  1.00  19777.63  1977763.33
829.9  1.00  19733.69  1973369.00
831.0  1.00  19716.84  1971683.67
832.2  1.00  19702.33  1970233.00
833.4  1.00  19688.76  1968876.00
834.6  1.00  19691.88  1969187.67
835.8  1.00  19703.88  1970388.00
837.0  1.00  19707.57  1970757.33
838.1  1.00  19757.53  1975753.00
839.3  1.00  19791.03  1979103.00
840.5  1.00  19826.49  1982648.67
841.7  1.00  19882.10  1988210.00
842.9  1.00  19941.01  1994101.33
844.0  1.00  19986.28  1998627.67
845.2  1.00  20058.41  2005841.33
846.4  1.00  20103.18  2010318.00
847.5  1.00  20211.34  2021134.00
848.7  1.00  20294.91  2029490.67
849.9  1.00  20384.56  2038455.67
851.0  1.00  20425.33  2042533.00
852.2  1.00  20450.08  2045008.00
853.3  1.00  20439.82  2043982.33
854.5  1.00  20446.92  2044691.67
855.6  1.00  20438.48  2043848.33
856.8  1.00  20438.23  2043822.67
857.9  1.00  20423.68  2042368.00
859.1  1.00  20470.75  2047074.67
860.2  1.00  20471.96  2047196.33
861.4  1.00  20484.67  2048467.00
862.5  1.00  20498.69  2049869.00
863.7  1.00  20536.38  2053638.00
864.8  1.00  20534.31  2053431.33
865.9  1.00  20520.50  2052050.00
867.1  1.00  20534.28  2053428.33
868.2  1.00  20528.42  2052841.67
869.3  1.00  20533.81  2053381.00
870.5  1.00  20497.16  2049715.67
871.6  1.00  20476.80  2047679.67
872.7  1.00  20489.51  2048951.00
873.9  1.00  20489.35  2048934.67
875.0  1.00  20448.82  2044882.00
876.1  1.00  20421.90  2042189.67
877.2  1.00  20420.89  2042089.33
878.3  1.00  20415.89  2041588.67
879.4  1.00  20403.07  2040307.00
880.5  1.00  20393.09  2039309.00
881.7  1.00  20379.15  2037914.67
882.8  1.00  20365.86  2036586.33
883.9  1.00  20367.61  2036761.00
885.0  1.00  20328.67  2032867.33
886.1  1.00  20291.74  2029174.00
887.2  1.00  20182.25  2018225.00
888.3  1.00  20120.42  2012041.67
889.4  1.00  20028.43  2002843.33
890.5  1.00  19973.09  1997309.00
891.6  1.00  19903.63  1990363.33
892.7  1.00  19902.09  1990208.67
893.8  1.00  19840.43  1984043.00
894.9  1.00  19816.97  1981697.00
896.0  1.00  19786.69  1978669.00
897.0  1.00  19777.25  1977724.67
898.1  1.00  19745.23  1974522.67
899.2  1.00  19721.10  1972109.67
900.3  1.00  19653.89  1965389.33
901.4  1.00  19586.57  1958657.33
902.4  1.00  19566.28  1956628.33
903.5  1.00  19504.32  1950432.33
904.6  1.00  19460.35  1946035.00
905.7  1.00  19416.44  1941644.33
906.7  1.00  19375.34  1937534.00
907.8  1.00  19353.21  1935321.33
908.9  1.00  19283.41  1928340.67
909.9  1.00  19220.41  1922041.33
911.0  1.00  19170.39  1917039.33
912.1  1.00  19086.46  1908645.67
913.1  1.00  19017.02  1901702.33
914.2  1.00  18941.67  1894167.00
915.2  1.00  18875.77  1887577.33
916.3  1.00  18822.98  1882298.00
917.3  1.00  18724.65  1872464.67
918.4  1.00  18643.31  1864331.33
919.4  1.00  18547.98  1854797.67
920.5  1.00  18487.94  1848794.33
921.5  1.00  18391.57  1839156.67
922.6  1.00  18295.66  1829565.67
923.6  1.00  18238.41  1823840.67
924.7  1.00  18157.47  1815746.67
925.7  1.00  18058.01  1805800.67
926.7  1.00  17990.80  1799080.00
927.8  1.00  17924.10  1792409.67
928.8  1.00  17868.19  1786819.00
929.9  1.00  17815.17  1781517.00
930.9  1.00  17797.60  1779760.33
931.9  1.00  17740.06  1774006.00
932.9  1.00  17737.24  1773723.67
934.0  1.00  17660.62  1766061.67
935.0  1.00  17555.92  1755592.33
936.0  1.00  17416.89  1741689.00
937.0  1.00  17304.84  1730484.33
938.1  1.00  17175.32  1717532.00
939.1  1.00  17052.03  1705203.33
940.1  1.00  16978.20  1697819.67
941.1  1.00  16939.72  1693972.33
942.1  1.00  16934.95  1693494.67
943.1  1.00  16899.85  1689985.33
944.1  1.00  16851.89  1685189.33
945.2  1.00  16745.46  1674545.67
946.2  1.00  16640.14  1664014.00
947.2  1.00  16574.30  1657430.00
948.2  1.00  16507.37  1650736.67
949.2  1.00  16414.78  1641478.00
950.2  1.00  16299.87  1629987.33
951.2  1.00  16172.58  1617257.67
952.2  1.00  16053.86  1605385.67
953.2  1.00  15970.50  1597050.33
954.2  1.00  15907.14  1590714.00
955.2  1.00  15790.60  1579060.33
956.2  1.00  15665.44  1566543.67
957.2  1.00  15596.74  1559674.33
958.2  1.00  15509.52  1550952.00
959.2  1.00  15484.50  1548450.00
960.1  1.00  15415.58  1541558.33
961.1  1.00  15416.08  1541608.33
962.1  1.00  15361.50  1536150.33
963.1  1.00  15335.86  1533586.00
964.1  1.00  15347.93  1534792.67
965.1  1.00  15358.79  1535879.00
966.1  1.00  15328.81  1532881.00
967.0  1.00  15399.08  1539907.67
968.0  1.00  15330.09  1533009.33
969.0  1.00  15382.32  1538232.00
970.0  1.00  15347.74  1534774.33
971.0  1.00  15390.51  1539051.00
971.9  1.00  15452.14  1545214.33
972.9  1.00  15503.24  1550324.00
973.9  1.00  15562.47  1556247.33
974.9  1.00  15610.08  1561007.67
975.8  1.00  15667.14  1566714.00
976.8  1.00  15802.68  1580268.33
977.8  1.00  15869.28  1586928.33
978.8  1.00  15912.70  1591270.00
979.7  1.00  16066.35  1606635.33
980.7  1.00  16128.68  1612868.33
981.7  1.00  16266.38  1626638.33
982.6  1.00  16496.24  1649623.67
983.6  1.00  16779.59  1677959.33
984.6  1.00  17042.56  1704255.67
985.5  1.00  17419.20  1741920.00
986.5  1.00  17674.46  1767446.33
987.5  1.00  18147.69  1814768.67
988.4  1.00  18537.35  1853734.67
989.4  1.00  19341.49  1934149.33
990.4  1.00  19949.23  1994923.00
991.3  1.00  20246.19  2024619.33
992.3  1.00  20658.79  2065879.33
993.2  1.00  21571.84  2157183.67
994.2  1.00  22028.96  2202895.67
995.2  1.00  22307.19  2230719.33
996.1  1.00  22779.81  2277980.67
997.1  1.00  23408.05  2340805.00
998.0  1.00  22885.68  2288568.00
999.0  1.00  23558.88  2355888.33
1000.0  1.00  23750.95  2375095.00
1000.9  1.00  22927.35  2292735.00
1001.9  1.00  23569.29  2356929.00
1002.8  1.00  23638.99  2363899.33
1003.8  1.00  24322.73  2432272.67
1004.8  1.00  23487.33  2348732.67
961.5  1.00  17595.94  1759594.33
965.5  1.00  17627.84  1762784.00
969.5  1.00  17486.08  1748608.00
973.4  1.00  17144.67  1714466.67
977.4  1.00  16863.34  1686334.33
981.4  1.00  16841.66  1684165.67
985.3  1.00  16958.19  1695818.67
989.3  1.00  17130.69  1713069.33
993.3  1.00  17262.02  1726202.33
997.2  1.00  17343.38  1734338.00
1001.2  1.00  17463.85  1746385.33
1005.2  1.00  17649.82  1764982.00
1009.1  1.00  17924.99  1792498.67
1013.1  1.00  18229.30  1822930.33
1017.1  1.00  18530.03  1853003.00
1021.0  1.00  18779.71  1877971.33
1025.0  1.00  19033.87  1903387.33
1029.0  1.00  19219.64  1921964.33
1032.9  1.00  19426.07  1942607.33
1036.9  1.00  19690.58  1969058.00
1040.9  1.00  19970.38  1997038.33
1044.8  1.00  20278.97  2027897.33
1048.8  1.00  20537.07  2053707.33
1052.7  1.00  20754.98  2075497.67
1056.7  1.00  20905.90  2090590.00
1060.7  1.00  21013.79  2101379.00
1064.6  1.00  21100.97  2110097.00
1068.6  1.00  21101.47  2110147.00
1072.5  1.00  21058.54  2105854.33
1076.5  1.00  21000.83  2100082.67
1080.4  1.00  20924.86  2092486.00
1084.4  1.00  20853.18  2085317.67
1088.3  1.00  20758.74  2075874.00
1092.3  1.00  20587.24  2058724.33
1096.2  1.00  20379.19  2037919.33
1100.2  1.00  20189.94  2018994.00
1104.1  1.00  19933.69  1993368.67
1108.1  1.00  19700.71  1970070.67
1112.0  1.00  19452.29  1945228.67
1116.0  1.00  19135.09  1913509.00
1119.9  1.00  18782.54  1878253.67
1123.9  1.00  18439.01  1843900.67
1127.8  1.00  17922.56  1792256.00
1131.8  1.00  17266.92  1726692.00
1135.7  1.00  16515.68  1651568.33
1139.6  1.00  15708.64  1570864.00
1143.6  1.00  14937.61  1493760.67
1147.5  1.00  14292.31  1429230.67
1151.4  1.00  13751.73  1375173.00
1155.4  1.00  13402.82  1340282.00
1159.3  1.00  13190.20  1319020.00
1163.2  1.00  12994.47  1299447.00
1167.2  1.00  12889.14  1288914.00
1171.1  1.00  12820.27  1282027.00
1175.0  1.00  12735.46  1273546.00
1179.0  1.00  12663.37  1266336.67
1182.9  1.00  12628.05  1262805.33
1186.8  1.00  12577.37  1257736.67
1190.7  1.00  12473.58  1247358.33
1194.7  1.00  12371.17  1237117.00
1198.6  1.00  12305.37  1230537.33
1202.5  1.00  12274.37  1227436.67
1206.4  1.00  12265.64  1226563.67
1210.3  1.00  12268.42  1226841.67
1214.2  1.00  12290.95  1229095.33
1218.2  1.00  12323.12  1232312.33
1222.1  1.00  12359.85  1235985.33
1226.0  1.00  12409.35  1240934.67
1229.9  1.00  12446.52  1244652.00
1233.8  1.00  12474.95  1247495.00
1237.7  1.00  12518.87  1251887.33
1241.6  1.00  12546.64  1254663.67
1245.5  1.00  12546.21  1254621.33
1249.4  1.00  12552.05  1255204.67
1253.3  1.00  12558.87  1255887.00
1257.2  1.00  12566.61  1256661.00
1261.1  1.00  12551.43  1255143.33
1265.0  1.00  12515.04  1251504.00
1268.9  1.00  12447.63  1244763.33
1272.8  1.00  12429.80  1242980.00
1276.7  1.00  12438.92  1243892.00
1280.6  1.00  12404.83  1240483.33
1284.5  1.00  12300.57  1230056.67
1288.4  1.00  12188.87  1218886.67
1292.3  1.00  12034.00  1203400.00
1296.2  1.00  11855.66  1185565.67
1300.1  1.00  11645.73  1164573.00
1303.9  1.00  11389.57  1138956.67
1307.8  1.00  11116.58  1111657.67
1311.7  1.00  10824.34  1082433.67
