/*** Spectra Vista SIG Data ***/
name= GT2.sig
comm= SIG file reprocesed for matching/overlap;Averaged Ref/Tar of files: GD4T4,GD4T5,GD4T6
data=
346.4  1.00  104.04  10404.00
347.9  1.00  107.10  10710.00
349.5  1.00  104.00  10400.00
351.1  1.00  106.91  10691.00
352.6  1.00  113.01  11301.00
354.2  1.00  118.25  11825.00
355.7  1.00  119.43  11943.00
357.3  1.00  121.59  12159.00
358.8  1.00  118.36  11836.00
360.4  1.00  131.79  13179.00
361.9  1.00  128.62  12862.00
363.5  1.00  129.73  12973.00
365.1  1.00  133.61  13361.00
366.6  1.00  128.43  12843.00
368.2  1.00  133.85  13385.00
369.7  1.00  127.55  12755.00
371.3  1.00  129.94  12994.00
372.8  1.00  135.46  13546.00
374.4  1.00  137.51  13751.00
375.9  1.00  139.02  13902.00
377.4  1.00  140.94  14094.00
379.0  1.00  142.58  14258.00
380.5  1.00  139.10  13910.00
382.1  1.00  135.93  13593.00
383.6  1.00  133.43  13343.00
385.2  1.00  136.40  13640.00
386.7  1.00  138.62  13862.00
388.3  1.00  145.66  14566.00
389.8  1.00  146.77  14677.00
391.3  1.00  153.73  15373.00
392.9  1.00  153.63  15363.00
394.4  1.00  163.02  16302.00
395.9  1.00  173.74  17374.00
397.5  1.00  183.46  18346.00
399.0  1.00  184.58  18458.00
400.6  1.00  181.87  18187.00
402.1  1.00  177.16  17716.00
403.6  1.00  174.86  17486.00
405.1  1.00  172.74  17274.00
406.7  1.00  183.38  18338.00
408.2  1.00  190.38  19038.00
409.7  1.00  195.33  19533.00
411.3  1.00  200.73  20073.00
412.8  1.00  212.35  21235.00
414.3  1.00  217.67  21767.00
415.8  1.00  229.67  22967.00
417.4  1.00  239.17  23917.00
418.9  1.00  243.56  24356.00
420.4  1.00  252.91  25291.00
421.9  1.00  257.49  25749.00
423.5  1.00  258.41  25841.00
425.0  1.00  261.91  26191.00
426.5  1.00  264.31  26431.00
428.0  1.00  269.84  26984.00
429.5  1.00  270.71  27071.00
431.1  1.00  279.93  27993.00
432.6  1.00  290.43  29043.00
434.1  1.00  297.73  29773.00
435.6  1.00  307.02  30702.00
437.1  1.00  315.64  31564.00
438.6  1.00  326.72  32672.00
440.1  1.00  334.12  33412.00
441.6  1.00  341.50  34150.00
443.1  1.00  354.51  35451.00
444.7  1.00  368.53  36853.00
446.2  1.00  380.58  38058.00
447.7  1.00  398.42  39842.00
449.2  1.00  413.57  41357.00
450.7  1.00  430.70  43070.00
452.2  1.00  441.21  44121.00
453.7  1.00  454.20  45420.00
455.2  1.00  470.29  47029.00
456.7  1.00  486.00  48600.00
458.2  1.00  502.58  50258.00
459.7  1.00  521.03  52103.00
461.2  1.00  538.91  53891.00
462.7  1.00  553.95  55395.00
464.2  1.00  570.23  57023.00
465.7  1.00  587.78  58778.00
467.2  1.00  599.32  59932.00
468.7  1.00  616.27  61627.00
470.2  1.00  627.67  62767.00
471.7  1.00  646.63  64663.00
473.2  1.00  683.21  68321.00
474.6  1.00  702.44  70244.00
476.1  1.00  707.23  70723.00
477.6  1.00  702.09  70209.00
479.1  1.00  702.93  70293.00
480.6  1.00  714.11  71411.00
482.1  1.00  725.68  72568.00
483.6  1.00  738.52  73852.00
485.1  1.00  762.48  76248.00
486.6  1.00  783.99  78399.00
488.0  1.00  812.28  81228.00
489.5  1.00  842.17  84217.00
491.0  1.00  881.29  88129.00
492.5  1.00  921.67  92167.00
494.0  1.00  968.36  96836.00
495.4  1.00  1017.28  101728.00
496.9  1.00  1071.47  107147.00
498.4  1.00  1136.23  113623.00
499.9  1.00  1202.25  120225.00
501.4  1.00  1276.41  127641.00
502.8  1.00  1353.72  135372.00
504.3  1.00  1437.60  143760.00
505.8  1.00  1530.96  153096.00
507.2  1.00  1622.35  162235.00
508.7  1.00  1713.31  171331.00
510.2  1.00  1807.45  180745.00
511.6  1.00  1908.63  190863.00
513.1  1.00  2020.10  202010.00
514.6  1.00  2133.49  213349.00
516.0  1.00  2249.99  224999.00
517.5  1.00  2375.86  237586.00
519.0  1.00  2510.07  251007.00
520.5  1.00  2644.12  264412.00
521.9  1.00  2785.11  278511.00
523.4  1.00  2931.19  293119.00
524.8  1.00  3076.38  307638.00
526.3  1.00  3225.17  322517.00
527.8  1.00  3370.72  337072.00
529.2  1.00  3502.78  350278.00
530.7  1.00  3640.49  364049.00
532.1  1.00  3766.78  376678.00
533.6  1.00  3897.14  389714.00
535.0  1.00  4023.79  402379.00
536.5  1.00  4139.68  413968.00
538.0  1.00  4257.27  425727.00
539.4  1.00  4367.30  436730.00
540.9  1.00  4499.70  449970.00
542.3  1.00  4622.71  462271.00
543.8  1.00  4727.67  472767.00
545.2  1.00  4774.49  477449.00
546.6  1.00  4805.64  480564.00
548.1  1.00  4839.13  483913.00
549.5  1.00  4865.25  486525.00
551.0  1.00  4893.17  489317.00
552.4  1.00  4918.32  491832.00
553.9  1.00  4933.96  493396.00
555.3  1.00  4953.55  495355.00
556.8  1.00  4977.57  497757.00
558.2  1.00  4996.35  499635.00
559.6  1.00  5022.06  502206.00
561.1  1.00  5054.40  505440.00
562.5  1.00  5085.05  508505.00
564.0  1.00  5125.68  512568.00
565.4  1.00  5160.74  516074.00
566.8  1.00  5199.42  519942.00
568.3  1.00  5225.10  522510.00
569.7  1.00  5246.73  524673.00
571.1  1.00  5260.89  526089.00
572.6  1.00  5273.21  527321.00
574.0  1.00  5279.56  527956.00
575.4  1.00  5284.35  528435.00
576.9  1.00  5288.52  528852.00
578.3  1.00  5289.81  528981.00
579.7  1.00  5285.02  528502.00
581.1  1.00  5279.59  527959.00
582.6  1.00  5276.57  527657.00
584.0  1.00  5275.41  527541.00
585.4  1.00  5285.34  528534.00
586.8  1.00  5329.59  532959.00
588.3  1.00  5375.45  537545.00
589.7  1.00  5421.31  542131.00
591.1  1.00  5432.16  543216.00
592.5  1.00  5423.97  542397.00
594.0  1.00  5412.66  541266.00
595.4  1.00  5390.12  539012.00
596.8  1.00  5366.22  536622.00
598.2  1.00  5343.08  534308.00
599.6  1.00  5316.86  531686.00
601.0  1.00  5299.61  529961.00
602.4  1.00  5284.84  528484.00
603.9  1.00  5267.76  526776.00
605.3  1.00  5248.30  524830.00
606.7  1.00  5220.72  522072.00
608.1  1.00  5205.16  520516.00
609.5  1.00  5190.93  519093.00
610.9  1.00  5178.96  517896.00
612.3  1.00  5158.39  515839.00
613.7  1.00  5148.29  514829.00
615.1  1.00  5116.39  511639.00
616.5  1.00  5087.64  508764.00
617.9  1.00  5088.47  508847.00
619.3  1.00  5094.91  509491.00
620.7  1.00  5113.52  511352.00
622.1  1.00  5200.97  520097.00
623.5  1.00  5338.79  533879.00
624.9  1.00  5491.92  549192.00
626.3  1.00  5614.42  561442.00
627.7  1.00  5594.23  559423.00
629.1  1.00  5554.88  555488.00
630.5  1.00  5526.23  552623.00
631.9  1.00  5470.30  547030.00
633.3  1.00  5388.74  538874.00
634.7  1.00  5329.97  532997.00
636.1  1.00  5252.74  525274.00
637.5  1.00  5155.33  515533.00
638.9  1.00  5029.71  502971.00
640.2  1.00  4872.21  487221.00
641.6  1.00  4686.24  468624.00
643.0  1.00  4494.46  449446.00
644.4  1.00  4331.12  433112.00
645.8  1.00  4188.67  418867.00
647.2  1.00  4105.47  410547.00
648.5  1.00  4039.10  403910.00
649.9  1.00  3948.85  394885.00
651.3  1.00  3872.94  387294.00
652.7  1.00  3803.58  380358.00
654.1  1.00  3719.19  371919.00
655.5  1.00  3620.66  362066.00
656.8  1.00  3515.10  351510.00
658.2  1.00  3440.70  344070.00
659.6  1.00  3376.07  337607.00
660.9  1.00  3297.13  329713.00
662.3  1.00  3209.22  320922.00
663.7  1.00  3120.88  312088.00
665.0  1.00  3035.17  303517.00
666.4  1.00  2954.88  295488.00
667.8  1.00  2896.18  289618.00
669.1  1.00  2845.55  284555.00
670.5  1.00  2812.11  281211.00
671.9  1.00  2783.65  278365.00
673.2  1.00  2774.11  277411.00
674.6  1.00  2780.00  278000.00
676.0  1.00  2802.57  280257.00
677.3  1.00  2845.57  284557.00
678.7  1.00  2912.95  291295.00
680.0  1.00  3019.17  301917.00
681.4  1.00  3165.41  316541.00
682.8  1.00  3363.36  336336.00
684.1  1.00  3626.69  362669.00
685.5  1.00  3950.99  395099.00
686.8  1.00  4341.41  434141.00
688.2  1.00  4809.14  480914.00
689.5  1.00  5314.49  531449.00
690.9  1.00  5871.14  587114.00
692.2  1.00  6461.36  646136.00
693.6  1.00  7094.85  709485.00
694.9  1.00  7751.45  775145.00
696.2  1.00  8432.49  843249.00
697.6  1.00  9107.18  910718.00
698.9  1.00  9781.02  978102.00
700.3  1.00  10427.95  1042795.00
701.6  1.00  11059.71  1105971.00
703.0  1.00  11655.75  1165575.00
704.3  1.00  12214.67  1221467.00
705.6  1.00  12706.78  1270678.00
707.0  1.00  13193.04  1319304.00
708.3  1.00  13627.17  1362717.00
709.6  1.00  14020.55  1402055.00
711.0  1.00  14380.26  1438026.00
712.3  1.00  14707.74  1470774.00
713.6  1.00  15052.41  1505241.00
714.9  1.00  15341.80  1534180.00
716.3  1.00  15644.94  1564494.00
717.6  1.00  15946.98  1594698.00
718.9  1.00  16183.86  1618386.00
720.2  1.00  16362.76  1636276.00
721.6  1.00  16531.91  1653191.00
722.9  1.00  16656.35  1665635.00
724.2  1.00  16742.21  1674221.00
725.5  1.00  16837.45  1683745.00
726.8  1.00  16903.61  1690361.00
728.1  1.00  16992.01  1699201.00
729.5  1.00  17056.73  1705673.00
730.8  1.00  17125.07  1712507.00
732.1  1.00  17164.42  1716442.00
733.4  1.00  17219.95  1721995.00
734.7  1.00  17256.51  1725651.00
736.0  1.00  17318.24  1731824.00
737.3  1.00  17348.14  1734814.00
738.6  1.00  17447.50  1744750.00
739.9  1.00  17577.00  1757700.00
741.2  1.00  17694.77  1769477.00
742.5  1.00  17865.67  1786567.00
743.8  1.00  18104.24  1810424.00
745.1  1.00  18457.43  1845743.00
746.4  1.00  18885.78  1888578.00
747.7  1.00  19333.20  1933320.00
749.0  1.00  19769.46  1976946.00
750.3  1.00  20038.27  2003827.00
751.6  1.00  20056.26  2005626.00
752.9  1.00  19894.96  1989496.00
754.2  1.00  19694.05  1969405.00
755.4  1.00  19489.74  1948974.00
756.7  1.00  19426.41  1942641.00
758.0  1.00  19464.99  1946499.00
759.3  1.00  19622.47  1962247.00
760.6  1.00  19818.36  1981836.00
761.9  1.00  20006.45  2000645.00
763.1  1.00  20123.80  2012380.00
764.4  1.00  20255.17  2025517.00
765.7  1.00  20365.80  2036580.00
767.0  1.00  20466.70  2046670.00
768.2  1.00  20562.30  2056230.00
769.5  1.00  20623.93  2062393.00
770.8  1.00  20737.13  2073713.00
772.0  1.00  20779.37  2077937.00
773.3  1.00  20850.87  2085087.00
774.6  1.00  20922.97  2092297.00
775.8  1.00  20981.83  2098183.00
777.1  1.00  21021.24  2102124.00
778.4  1.00  21018.57  2101857.00
779.6  1.00  21018.16  2101816.00
780.9  1.00  21005.87  2100587.00
782.1  1.00  20954.91  2095491.00
783.4  1.00  20967.51  2096751.00
784.6  1.00  20994.83  2099483.00
785.9  1.00  21161.21  2116121.00
787.1  1.00  21457.41  2145741.00
788.4  1.00  21715.82  2171582.00
789.6  1.00  21738.56  2173856.00
790.9  1.00  21580.26  2158026.00
792.1  1.00  21367.89  2136789.00
793.4  1.00  21161.76  2116176.00
794.6  1.00  21015.39  2101539.00
795.8  1.00  20889.02  2088902.00
797.1  1.00  20769.89  2076989.00
798.3  1.00  20665.59  2066559.00
799.5  1.00  20622.60  2062260.00
800.8  1.00  20570.29  2057029.00
802.0  1.00  20511.16  2051116.00
803.2  1.00  20444.26  2044426.00
804.5  1.00  20410.35  2041035.00
805.7  1.00  20334.37  2033437.00
806.9  1.00  20270.79  2027079.00
808.1  1.00  20226.15  2022615.00
809.4  1.00  20173.73  2017373.00
810.6  1.00  20121.92  2012192.00
811.8  1.00  20095.83  2009583.00
813.0  1.00  20099.76  2009976.00
814.2  1.00  20108.98  2010898.00
815.4  1.00  20158.73  2015873.00
816.6  1.00  20174.17  2017417.00
817.9  1.00  20170.68  2017068.00
819.1  1.00  20131.43  2013143.00
820.3  1.00  20058.92  2005892.00
821.5  1.00  19989.00  1998900.00
822.7  1.00  19947.78  1994778.00
823.9  1.00  19901.14  1990114.00
825.1  1.00  19884.70  1988470.00
826.3  1.00  19836.80  1983680.00
827.5  1.00  19807.70  1980770.00
828.7  1.00  19777.63  1977763.00
829.9  1.00  19733.69  1973369.00
831.0  1.00  19716.84  1971684.00
832.2  1.00  19702.33  1970233.00
833.4  1.00  19688.76  1968876.00
834.6  1.00  19691.88  1969188.00
835.8  1.00  19703.88  1970388.00
837.0  1.00  19707.57  1970757.00
838.1  1.00  19757.53  1975753.00
839.3  1.00  19791.03  1979103.00
840.5  1.00  19826.49  1982649.00
841.7  1.00  19882.10  1988210.00
842.9  1.00  19941.01  1994101.00
844.0  1.00  19986.28  1998628.00
845.2  1.00  20058.41  2005841.00
846.4  1.00  20103.18  2010318.00
847.5  1.00  20211.34  2021134.00
848.7  1.00  20294.91  2029491.00
849.9  1.00  20384.56  2038456.00
851.0  1.00  20425.33  2042533.00
852.2  1.00  20450.08  2045008.00
853.3  1.00  20439.82  2043982.00
854.5  1.00  20446.92  2044692.00
855.6  1.00  20438.48  2043848.00
856.8  1.00  20438.23  2043823.00
857.9  1.00  20423.68  2042368.00
859.1  1.00  20470.75  2047075.00
860.2  1.00  20471.96  2047196.00
861.4  1.00  20484.67  2048467.00
862.5  1.00  20498.69  2049869.00
863.7  1.00  20536.38  2053638.00
864.8  1.00  20534.31  2053431.00
865.9  1.00  20520.50  2052050.00
867.1  1.00  20534.28  2053428.00
868.2  1.00  20528.42  2052842.00
869.3  1.00  20533.81  2053381.00
870.5  1.00  20497.16  2049716.00
871.6  1.00  20476.80  2047680.00
872.7  1.00  20489.51  2048951.00
873.9  1.00  20489.35  2048935.00
875.0  1.00  20448.82  2044882.00
876.1  1.00  20421.90  2042190.00
877.2  1.00  20420.89  2042089.00
878.3  1.00  20415.89  2041589.00
879.4  1.00  20403.07  2040307.00
880.5  1.00  20393.09  2039309.00
881.7  1.00  20379.15  2037915.00
882.8  1.00  20365.86  2036586.00
883.9  1.00  20367.61  2036761.00
885.0  1.00  20328.67  2032867.00
886.1  1.00  20291.74  2029174.00
887.2  1.00  20182.25  2018225.00
888.3  1.00  20120.42  2012042.00
889.4  1.00  20028.43  2002843.00
890.5  1.00  19973.09  1997309.00
891.6  1.00  19903.63  1990363.00
892.7  1.00  19902.09  1990209.00
893.8  1.00  19840.43  1984043.00
894.9  1.00  19816.97  1981697.00
896.0  1.00  19786.69  1978669.00
897.0  1.00  19777.25  1977725.00
898.1  1.00  19745.23  1974523.00
899.2  1.00  19721.10  1972110.00
900.3  1.00  19653.89  1965389.00
901.4  1.00  19586.57  1958657.00
902.4  1.00  19566.28  1956628.00
903.5  1.00  19504.32  1950432.00
904.6  1.00  19460.35  1946035.00
905.7  1.00  19416.44  1941644.00
906.7  1.00  19375.34  1937534.00
907.8  1.00  19353.21  1935321.00
908.9  1.00  19283.41  1928341.00
909.9  1.00  19220.41  1922041.00
911.0  1.00  19170.39  1917039.00
912.1  1.00  19086.46  1908646.00
913.1  1.00  19017.02  1901702.00
914.2  1.00  18941.67  1894167.00
915.2  1.00  18875.77  1887577.00
916.3  1.00  18822.98  1882298.00
917.3  1.00  18724.65  1872465.00
918.4  1.00  18643.31  1864331.00
919.4  1.00  18547.98  1854798.00
920.5  1.00  18487.94  1848794.00
921.5  1.00  18391.57  1839157.00
922.6  1.00  18295.66  1829566.00
923.6  1.00  18238.41  1823841.00
924.7  1.00  18157.47  1815747.00
925.7  1.00  18058.01  1805801.00
926.7  1.00  17990.80  1799080.00
927.8  1.00  17924.10  1792410.00
928.8  1.00  17868.19  1786819.00
929.9  1.00  17815.17  1781517.00
930.9  1.00  17797.60  1779760.00
931.9  1.00  17740.06  1774006.00
932.9  1.00  17737.24  1773724.00
934.0  1.00  17660.62  1766062.00
935.0  1.00  17555.92  1755592.00
936.0  1.00  17416.89  1741689.00
937.0  1.00  17304.84  1730484.00
938.1  1.00  17175.32  1717532.00
939.1  1.00  17052.03  1705203.00
940.1  1.00  16978.20  1697820.00
941.1  1.00  16939.72  1693972.00
942.1  1.00  16934.95  1693495.00
943.1  1.00  16899.85  1689985.00
944.1  1.00  16851.89  1685189.00
945.2  1.00  16745.46  1674546.00
946.2  1.00  16640.14  1664014.00
947.2  1.00  16574.30  1657430.00
948.2  1.00  16507.37  1650737.00
949.2  1.00  16414.78  1641478.00
950.2  1.00  16299.87  1629987.00
951.2  1.00  16172.58  1617258.00
952.2  1.00  16053.86  1605386.00
953.2  1.00  15970.50  1597050.00
954.2  1.00  15907.14  1590714.00
955.2  1.00  15790.60  1579060.00
956.2  1.00  15665.44  1566544.00
957.2  1.00  15596.74  1559674.00
958.2  1.00  15509.52  1550952.00
959.2  1.00  15484.50  1548450.00
960.1  1.00  15415.58  1541558.00
961.1  1.00  15416.08  1541608.00
962.1  1.00  15361.50  1536150.00
963.1  1.00  15335.86  1533586.00
964.1  1.00  15347.93  1534793.00
965.1  1.00  15358.79  1535879.00
966.1  1.00  15328.81  1532881.00
967.0  1.00  15399.08  1539908.00
968.0  1.00  15330.09  1533009.00
969.0  1.00  15382.32  1538232.00
970.0  1.00  15347.74  1534774.00
971.0  1.00  15390.51  1539051.00
971.9  1.00  15452.14  1545214.00
972.9  1.00  15503.24  1550324.00
973.9  1.00  15562.47  1556247.00
974.9  1.00  15610.08  1561008.00
975.8  1.00  15667.14  1566714.00
976.8  1.00  15802.68  1580268.00
977.8  1.00  15869.28  1586928.00
978.8  1.00  15912.70  1591270.00
979.7  1.00  16066.35  1606635.00
981.4  1.00  16841.66  1684166.00
985.3  1.00  16958.19  1695819.00
989.3  1.00  17130.69  1713069.00
993.3  1.00  17262.02  1726202.00
997.2  1.00  17343.38  1734338.00
1001.2  1.00  17463.85  1746385.00
1005.2  1.00  17649.82  1764982.00
1009.1  1.00  17924.99  1792499.00
1013.1  1.00  18229.30  1822930.00
1017.1  1.00  18530.03  1853003.00
1021.0  1.00  18779.71  1877971.00
1025.0  1.00  19033.87  1903387.00
1029.0  1.00  19219.64  1921964.00
1032.9  1.00  19426.07  1942607.00
1036.9  1.00  19690.58  1969058.00
1040.9  1.00  19970.38  1997038.00
1044.8  1.00  20278.97  2027897.00
1048.8  1.00  20537.07  2053707.00
1052.7  1.00  20754.98  2075498.00
1056.7  1.00  20905.90  2090590.00
1060.7  1.00  21013.79  2101379.00
1064.6  1.00  21100.97  2110097.00
1068.6  1.00  21101.47  2110147.00
1072.5  1.00  21058.54  2105854.00
1076.5  1.00  21000.83  2100083.00
1080.4  1.00  20924.86  2092486.00
1084.4  1.00  20853.18  2085318.00
1088.3  1.00  20758.74  2075874.00
1092.3  1.00  20587.24  2058724.00
1096.2  1.00  20379.19  2037919.00
1100.2  1.00  20189.94  2018994.00
1104.1  1.00  19933.69  1993369.00
1108.1  1.00  19700.71  1970071.00
1112.0  1.00  19452.29  1945229.00
1116.0  1.00  19135.09  1913509.00
1119.9  1.00  18782.54  1878254.00
1123.9  1.00  18439.01  1843901.00
1127.8  1.00  17922.56  1792256.00
1131.8  1.00  17266.92  1726692.00
1135.7  1.00  16515.68  1651568.00
1139.6  1.00  15708.64  1570864.00
1143.6  1.00  14937.61  1493761.00
1147.5  1.00  14292.31  1429231.00
1151.4  1.00  13751.73  1375173.00
1155.4  1.00  13402.82  1340282.00
1159.3  1.00  13190.20  1319020.00
1163.2  1.00  12994.47  1299447.00
1167.2  1.00  12889.14  1288914.00
1171.1  1.00  12820.27  1282027.00
1175.0  1.00  12735.46  1273546.00
1179.0  1.00  12663.37  1266337.00
1182.9  1.00  12628.05  1262805.00
1186.8  1.00  12577.37  1257737.00
1190.7  1.00  12473.58  1247358.00
1194.7  1.00  12371.17  1237117.00
1198.6  1.00  12305.37  1230537.00
1202.5  1.00  12274.37  1227437.00
1206.4  1.00  12265.64  1226564.00
1210.3  1.00  12268.42  1226842.00
1214.2  1.00  12290.95  1229095.00
1218.2  1.00  12323.12  1232312.00
1222.1  1.00  12359.85  1235985.00
1226.0  1.00  12409.35  1240935.00
1229.9  1.00  12446.52  1244652.00
1233.8  1.00  12474.95  1247495.00
1237.7  1.00  12518.87  1251887.00
1241.6  1.00  12546.64  1254664.00
1245.5  1.00  12546.21  1254621.00
1249.4  1.00  12552.05  1255205.00
1253.3  1.00  12558.87  1255887.00
1257.2  1.00  12566.61  1256661.00
1261.1  1.00  12551.43  1255143.00
1265.0  1.00  12515.04  1251504.00
1268.9  1.00  12447.63  1244763.00
1272.8  1.00  12429.80  1242980.00
1276.7  1.00  12438.92  1243892.00
1280.6  1.00  12404.83  1240483.00
1284.5  1.00  12300.57  1230057.00
1288.4  1.00  12188.87  1218887.00
1292.3  1.00  12034.00  1203400.00
1296.2  1.00  11855.66  1185566.00
1300.1  1.00  11645.73  1164573.00
1303.9  1.00  11389.57  1138957.00
1307.8  1.00  11116.58  1111658.00
1311.7  1.00  10824.34  1082434.00
1315.6  1.00  10521.95  1052195.00
1319.5  1.00  10196.97  1019697.00
1323.3  1.00  9872.80  987280.00
1327.2  1.00  9552.35  955235.00
1331.1  1.00  9231.35  923135.00
1335.0  1.00  8904.64  890464.00
1338.8  1.00  8615.10  861510.00
1342.7  1.00  8360.76  836076.00
1346.5  1.00  8085.03  808503.00
1350.4  1.00  7837.55  783755.00
1354.3  1.00  7584.39  758439.00
1358.1  1.00  7331.78  733178.00
1362.0  1.00  7105.52  710552.00
1365.8  1.00  6886.01  688601.00
1369.7  1.00  6666.82  666682.00
1373.5  1.00  6375.62  637562.00
1377.4  1.00  6003.84  600384.00
1381.2  1.00  5580.16  558016.00
1385.1  1.00  5147.13  514713.00
1389.0  1.00  4706.31  470631.00
1392.8  1.00  4265.57  426557.00
1396.6  1.00  3873.19  387319.00
1400.5  1.00  3534.14  353414.00
1404.3  1.00  3267.91  326791.00
1408.2  1.00  3057.70  305770.00
1412.0  1.00  2885.51  288551.00
1415.8  1.00  2768.12  276812.00
1419.6  1.00  2661.30  266130.00
1423.5  1.00  2577.94  257794.00
1427.3  1.00  2525.04  252504.00
1431.1  1.00  2486.20  248620.00
