/*** Spectra Vista SIG Data ***/
name= A.sig
comm= Averaged Ref/Tar of files: A1,A2,A3
data=
346.4  490.49  145.13  29.59
347.9  527.10  139.41  26.45
349.5  577.20  143.73  24.90
351.1  611.52  141.75  23.18
352.6  670.45  151.80  22.64
354.2  713.41  154.57  21.67
355.7  774.53  161.86  20.90
357.3  818.33  165.52  20.23
358.8  842.30  168.23  19.97
360.4  911.03  176.70  19.40
361.9  964.65  177.26  18.38
363.5  990.28  177.86  17.96
365.1  1050.65  177.88  16.93
366.6  1104.80  179.19  16.22
368.2  1165.05  174.48  14.98
369.7  1227.64  175.87  14.33
371.3  1313.71  180.32  13.73
372.8  1384.44  184.48  13.33
374.4  1441.80  185.46  12.86
375.9  1515.98  189.11  12.47
377.4  1557.95  191.03  12.26
379.0  1607.16  192.23  11.96
380.5  1649.54  190.29  11.54
382.1  1716.86  192.77  11.23
383.6  1783.22  186.17  10.44
385.2  1859.00  189.57  10.20
386.7  1941.28  192.50  9.92
388.3  2032.69  196.57  9.67
389.8  2119.14  208.62  9.84
391.3  2222.43  209.25  9.42
392.9  2290.23  218.40  9.54
394.4  2338.39  231.76  9.91
395.9  2427.22  242.30  9.98
397.5  2577.54  256.68  9.96
399.0  2700.66  260.69  9.65
400.6  2764.91  251.40  9.09
402.1  2809.62  251.21  8.94
403.6  2860.22  245.51  8.58
405.1  2936.23  244.50  8.33
406.7  3044.16  252.00  8.28
408.2  3154.14  259.43  8.23
409.7  3256.96  270.74  8.31
411.3  3364.47  281.29  8.36
412.8  3467.31  289.93  8.36
414.3  3583.14  303.00  8.46
415.8  3707.50  312.08  8.42
417.4  3825.36  320.13  8.37
418.9  3916.44  328.31  8.38
420.4  3990.49  328.76  8.24
421.9  4077.70  332.35  8.15
423.5  4137.62  337.25  8.15
425.0  4218.56  338.85  8.03
426.5  4304.30  343.64  7.98
428.0  4419.03  345.03  7.81
429.5  4544.48  351.48  7.73
431.1  4705.92  364.04  7.74
432.6  4881.23  372.90  7.64
434.1  5043.50  383.52  7.60
435.6  5187.74  398.29  7.68
437.1  5331.30  405.08  7.60
438.6  5474.49  417.10  7.62
440.1  5610.48  423.33  7.55
441.6  5755.19  430.80  7.49
443.1  5898.83  441.79  7.49
444.7  6035.54  448.47  7.43
446.2  6155.02  455.24  7.40
447.7  6280.48  467.39  7.44
449.2  6419.52  470.95  7.34
450.7  6524.96  476.25  7.30
452.2  6637.77  482.28  7.27
453.7  6773.91  485.62  7.17
455.2  6941.27  498.41  7.18
456.7  7138.56  511.45  7.16
458.2  7351.73  530.25  7.21
459.7  7579.25  548.45  7.24
461.2  7790.71  566.98  7.28
462.7  7967.29  587.24  7.37
464.2  8158.14  604.88  7.41
465.7  8354.88  626.96  7.50
467.2  8521.98  640.51  7.52
468.7  8686.00  653.93  7.53
470.2  8801.57  672.66  7.64
471.7  8996.50  690.33  7.67
473.2  9331.18  703.26  7.54
474.6  9564.43  707.67  7.40
476.1  9620.56  699.60  7.27
477.6  9638.73  699.22  7.25
479.1  9692.33  695.58  7.18
480.6  9790.29  695.83  7.11
482.1  9922.88  703.42  7.09
483.6  10086.88  715.34  7.09
485.1  10289.79  730.78  7.10
486.6  10525.88  757.52  7.20
488.0  10770.50  783.68  7.28
489.5  11028.84  816.33  7.40
491.0  11284.28  855.11  7.58
492.5  11552.22  899.53  7.79
494.0  11817.78  948.08  8.02
495.4  12046.65  997.70  8.28
496.9  12294.54  1053.38  8.57
498.4  12517.73  1110.51  8.87
499.9  12757.59  1175.34  9.21
501.4  12967.10  1233.31  9.51
502.8  13167.90  1299.07  9.87
504.3  13356.00  1362.06  10.20
505.8  13532.64  1432.27  10.58
507.2  13653.03  1493.15  10.94
508.7  13733.86  1559.02  11.35
510.2  13811.90  1618.89  11.72
511.6  13850.98  1681.48  12.14
513.1  13952.07  1745.90  12.51
514.6  14083.63  1814.94  12.89
516.0  14176.22  1884.87  13.30
517.5  14324.40  1963.15  13.70
519.0  14516.61  2049.00  14.11
520.5  14705.88  2132.98  14.50
521.9  14943.04  2227.62  14.91
523.4  15216.30  2328.49  15.30
524.8  15479.11  2429.75  15.70
526.3  15779.75  2536.72  16.08
527.8  16093.22  2642.58  16.42
529.2  16374.94  2745.12  16.76
530.7  16687.76  2849.69  17.08
532.1  16977.45  2949.89  17.38
533.6  17305.95  3059.48  17.68
535.0  17642.05  3163.95  17.93
536.5  17959.86  3268.17  18.20
538.0  18296.96  3374.56  18.44
539.4  18617.01  3474.89  18.67
540.9  19032.18  3595.24  18.89
542.3  19389.48  3706.21  19.11
543.8  19636.33  3793.98  19.32
545.2  19717.73  3847.48  19.51
546.6  19737.60  3884.88  19.68
548.1  19771.95  3921.88  19.84
549.5  19805.43  3954.41  19.97
551.0  19831.07  3990.05  20.12
552.4  19899.88  4032.52  20.26
553.9  19933.44  4070.76  20.42
555.3  19999.98  4110.27  20.55
556.8  20123.97  4164.66  20.70
558.2  20246.63  4222.41  20.85
559.6  20393.50  4291.10  21.04
561.1  20605.00  4374.99  21.23
562.5  20829.30  4463.29  21.43
564.0  21126.47  4575.79  21.66
565.4  21384.43  4685.37  21.91
566.8  21713.10  4811.69  22.16
568.3  22021.29  4939.64  22.43
569.7  22352.81  5068.91  22.68
571.1  22660.54  5196.56  22.93
572.6  22973.22  5331.64  23.21
574.0  23279.85  5460.90  23.46
575.4  23564.25  5591.42  23.73
576.9  23842.67  5716.15  23.97
578.3  24074.05  5845.25  24.28
579.7  24317.20  5970.32  24.55
581.1  24492.51  6090.79  24.87
582.6  24686.64  6215.61  25.18
584.0  24876.08  6341.55  25.49
585.4  25137.58  6493.65  25.83
586.8  25504.55  6667.19  26.14
588.3  25894.44  6861.35  26.50
589.7  26233.74  7037.39  26.83
591.1  26441.64  7182.02  27.16
592.5  26550.44  7300.41  27.50
594.0  26608.92  7401.18  27.81
595.4  26635.24  7490.92  28.12
596.8  26647.34  7587.51  28.47
598.2  26668.29  7690.53  28.84
599.6  26680.23  7789.89  29.20
601.0  26758.95  7917.52  29.59
602.4  26834.33  8048.32  29.99
603.9  26975.39  8198.91  30.39
605.3  27102.78  8350.21  30.81
606.7  27226.80  8499.24  31.22
608.1  27444.15  8682.47  31.64
609.5  27689.41  8879.60  32.07
610.9  27979.98  9093.18  32.50
612.3  28249.88  9306.73  32.94
613.7  28618.00  9552.18  33.38
615.1  28876.50  9755.75  33.78
616.5  29132.36  9974.92  34.24
617.9  29521.26  10251.14  34.72
619.3  29889.92  10539.29  35.26
620.7  30341.01  10877.78  35.85
622.1  30804.46  11072.48  35.94
623.5  31323.18  11193.24  35.73
624.9  31924.73  11348.22  35.55
626.3  32331.89  11487.13  35.53
627.7  32041.29  11482.35  35.84
629.1  31768.38  11558.50  36.38
630.5  31664.32  11737.96  37.07
631.9  31707.18  11987.62  37.81
633.3  31762.13  12240.22  38.54
634.7  31918.97  12523.41  39.24
636.1  31997.14  12718.31  39.75
637.5  32098.28  12908.81  40.22
638.9  32261.24  13119.01  40.66
640.2  32390.38  13310.12  41.09
641.6  32437.08  13474.03  41.54
643.0  32408.71  13602.55  41.97
644.4  32404.35  13748.66  42.43
645.8  32321.00  13862.03  42.89
647.2  32465.68  14058.58  43.30
648.5  32534.36  14254.67  43.81
649.9  32389.70  14383.00  44.41
651.3  32249.85  14565.77  45.17
652.7  32010.15  14692.08  45.90
654.1  31763.52  14432.08  45.44
655.5  31554.08  14078.38  44.62
656.8  31352.55  13744.90  43.84
658.2  31560.50  13619.52  43.15
659.6  31924.89  13594.93  42.58
660.9  32233.98  13573.35  42.11
662.3  32527.31  13532.85  41.60
663.7  32810.40  13471.71  41.06
665.0  33053.44  13395.54  40.53
666.4  33302.26  13335.91  40.05
667.8  33605.42  13317.50  39.63
669.1  33877.47  13280.30  39.20
670.5  34171.03  13284.96  38.88
671.9  34359.72  13271.56  38.63
673.2  34630.03  13329.58  38.49
674.6  34867.19  13412.50  38.47
676.0  35155.82  13562.79  38.58
677.3  35443.21  13772.11  38.86
678.7  35768.00  14035.48  39.24
680.0  36183.65  14433.48  39.89
681.4  36646.41  14942.77  40.78
682.8  37075.68  15575.64  42.01
684.1  37526.58  16330.47  43.52
685.5  37925.87  17159.54  45.24
686.8  38329.26  18055.34  47.11
688.2  38686.15  18960.44  49.01
689.5  38850.20  19778.28  50.91
690.9  38981.61  20569.67  52.77
692.2  39083.85  21295.14  54.49
693.6  39201.36  22002.17  56.13
694.9  39187.75  22557.37  57.56
696.2  39254.96  23077.92  58.79
697.6  39323.35  23535.06  59.85
698.9  39404.64  23974.10  60.84
700.3  39505.32  24387.42  61.73
701.6  39618.65  24762.11  62.50
703.0  39738.75  25096.10  63.15
704.3  39804.86  25329.92  63.64
705.6  39846.78  25558.54  64.14
707.0  39923.98  25766.41  64.54
708.3  39866.99  25863.99  64.88
709.6  39798.03  25954.13  65.21
711.0  39711.49  25975.23  65.41
712.3  39610.00  25998.24  65.64
713.6  39584.16  26045.56  65.80
714.9  39531.60  26081.75  65.98
716.3  39554.50  26139.83  66.09
717.6  39599.56  26222.82  66.22
718.9  39559.43  26218.35  66.28
720.2  39418.96  26093.69  66.20
721.6  39324.48  26015.79  66.16
722.9  39177.39  25945.49  66.23
724.2  38953.15  25818.64  66.28
725.5  38804.60  25750.24  66.36
726.8  38649.46  25628.55  66.31
728.1  38599.91  25543.41  66.17
729.5  38524.75  25471.00  66.12
730.8  38475.56  25408.75  66.04
732.1  38400.70  25328.38  65.96
733.4  38372.85  25286.63  65.90
734.7  38320.98  25210.94  65.79
736.0  38344.02  25202.64  65.73
737.3  38278.76  25173.23  65.76
738.6  38382.45  25232.50  65.74
739.9  38561.99  25403.02  65.88
741.2  38705.94  25482.46  65.84
742.5  38966.55  25686.25  65.92
743.8  39423.04  26019.36  66.00
745.1  40090.50  26496.17  66.09
746.4  40885.85  27009.02  66.06
747.7  41715.16  27513.75  65.96
749.0  42545.70  28005.34  65.82
750.3  43049.23  28246.18  65.61
751.6  43038.08  28183.89  65.49
752.9  42609.35  27960.31  65.62
754.2  42168.53  27704.07  65.70
755.4  41635.13  27417.14  65.85
756.7  41457.00  27362.67  66.00
758.0  41479.52  27429.94  66.13
759.3  41746.58  27659.87  66.26
760.6  42119.00  27985.91  66.44
761.9  42454.12  28286.64  66.63
763.1  42660.98  28441.50  66.67
764.4  42919.91  28636.65  66.72
765.7  43101.50  28786.66  66.79
767.0  43256.15  28893.13  66.80
768.2  43391.04  29009.34  66.86
769.5  43460.35  29106.51  66.97
770.8  43687.96  29260.08  66.98
772.0  43738.21  29313.84  67.02
773.3  43838.34  29422.17  67.12
774.6  43948.81  29525.92  67.18
775.8  44076.34  29599.76  67.16
777.1  44128.01  29647.59  67.19
778.4  44093.37  29623.51  67.18
779.6  44094.60  29657.09  67.26
780.9  44024.00  29652.80  67.36
782.1  43873.04  29589.97  67.44
783.4  43892.16  29606.30  67.45
784.6  43917.08  29672.39  67.56
785.9  44234.28  29939.83  67.68
787.1  44820.11  30372.63  67.77
788.4  45328.07  30605.20  67.52
789.6  45372.96  30454.45  67.12
790.9  44999.95  30108.65  66.91
792.1  44544.64  29821.19  66.95
793.4  44076.62  29547.84  67.04
794.6  43779.45  29340.32  67.02
795.8  43541.19  29196.79  67.06
797.1  43256.63  29037.37  67.13
798.3  43047.26  28942.45  67.23
799.5  42927.57  28862.90  67.24
800.8  42825.90  28793.34  67.23
802.0  42691.40  28704.11  67.24
803.2  42569.36  28603.01  67.19
804.5  42497.93  28539.69  67.16
805.7  42375.83  28460.69  67.16
806.9  42272.55  28387.74  67.15
808.1  42169.77  28336.66  67.20
809.4  42153.38  28314.76  67.17
810.6  42060.20  28278.10  67.23
811.8  42044.14  28284.11  67.27
813.0  42084.91  28308.79  67.27
814.2  42127.75  28336.23  67.26
815.4  42236.79  28378.52  67.19
816.6  42301.14  28393.73  67.12
817.9  42391.83  28403.57  67.00
819.1  42365.34  28319.75  66.85
820.3  42273.78  28194.57  66.70
821.5  42198.18  28118.78  66.64
822.7  42149.23  28049.24  66.55
823.9  42186.24  28035.96  66.46
825.1  42220.30  28002.62  66.33
826.3  42272.51  27972.87  66.17
827.5  42328.13  27968.79  66.08
828.7  42417.12  27937.75  65.86
829.9  42510.53  27920.75  65.68
831.0  42609.44  27953.68  65.60
832.2  42758.13  28003.11  65.49
833.4  42849.53  28025.58  65.40
834.6  42979.69  28070.94  65.31
835.8  43101.45  28127.30  65.26
837.0  43207.85  28210.57  65.29
838.1  43396.04  28336.54  65.30
839.3  43498.84  28386.09  65.26
840.5  43625.57  28468.62  65.26
841.7  43776.18  28610.69  65.36
842.9  43948.14  28780.18  65.49
844.0  44059.79  28870.75  65.53
845.2  44241.86  28989.68  65.53
846.4  44382.22  29061.46  65.48
847.5  44619.40  29233.77  65.52
848.7  44816.42  29351.07  65.49
849.9  45018.15  29444.69  65.41
851.0  45136.02  29438.56  65.22
852.2  45223.42  29455.69  65.13
853.3  45246.20  29427.86  65.04
854.5  45259.51  29420.38  65.00
855.6  45267.21  29414.94  64.98
856.8  45301.69  29477.70  65.07
857.9  45313.04  29469.73  65.04
859.1  45415.00  29559.95  65.09
860.2  45473.48  29565.82  65.02
861.4  45514.89  29586.80  65.00
862.5  45544.75  29621.41  65.04
863.7  45635.91  29660.28  64.99
864.8  45619.00  29672.08  65.04
865.9  45579.36  29653.69  65.06
867.1  45659.13  29646.94  64.93
868.2  45643.16  29649.40  64.96
869.3  45709.35  29654.99  64.88
870.5  45625.80  29604.20  64.88
871.6  45591.62  29599.96  64.92
872.7  45685.87  29672.61  64.95
873.9  45732.39  29654.52  64.84
875.0  45707.10  29616.04  64.80
876.1  45729.74  29581.45  64.69
877.2  45749.63  29600.06  64.70
878.3  45750.96  29543.25  64.57
879.4  45782.70  29541.75  64.53
880.5  45838.08  29531.17  64.42
881.7  45807.45  29459.24  64.31
882.8  45892.11  29448.66  64.17
883.9  45950.60  29413.23  64.01
885.0  45870.83  29294.63  63.86
886.1  45891.73  29207.32  63.64
887.2  45762.08  29044.91  63.47
888.3  45654.92  28930.67  63.37
889.4  45608.33  28798.30  63.14
890.5  45529.28  28726.85  63.10
891.6  45491.45  28642.23  62.96
892.7  45454.64  28576.53  62.87
893.8  45497.68  28606.85  62.88
894.9  45513.05  28584.51  62.81
896.0  45511.22  28514.49  62.65
897.0  45516.23  28483.19  62.58
898.1  45518.04  28455.04  62.51
899.2  45541.84  28421.62  62.41
900.3  45447.60  28331.51  62.34
901.4  45393.41  28231.59  62.19
902.4  45399.18  28221.55  62.16
903.5  45331.76  28130.47  62.05
904.6  45331.53  28107.20  62.00
905.7  45413.14  28074.97  61.82
906.7  45351.95  28030.14  61.81
907.8  45461.39  28014.83  61.62
908.9  45371.01  27908.34  61.51
909.9  45376.10  27829.31  61.33
911.0  45349.88  27734.63  61.16
912.1  45250.84  27623.24  61.04
913.1  45201.00  27526.34  60.90
914.2  45070.85  27399.57  60.79
915.2  45104.85  27332.31  60.60
916.3  45094.35  27263.98  60.46
917.3  45127.87  27175.73  60.22
918.4  44963.33  27014.29  60.08
919.4  45017.27  26899.01  59.75
920.5  45038.80  26831.83  59.57
921.5  45047.17  26722.70  59.32
922.6  44963.24  26571.74  59.10
923.6  45028.42  26473.57  58.79
924.7  45107.00  26367.60  58.46
925.7  45112.44  26227.26  58.14
926.7  45163.49  26112.26  57.82
927.8  45183.35  25968.14  57.47
928.8  45409.02  25878.37  56.99
929.9  45525.24  25817.23  56.71
930.9  45738.51  25803.17  56.41
931.9  45945.48  25782.83  56.12
932.9  46297.35  25802.44  55.73
934.0  46389.58  25687.49  55.37
935.0  46434.83  25567.63  55.06
936.0  46444.25  25391.73  54.67
937.0  46426.19  25226.92  54.34
938.1  46370.49  25082.11  54.09
939.1  46363.52  24929.10  53.77
940.1  46520.48  24806.88  53.32
941.1  46761.80  24748.94  52.93
942.1  46953.11  24731.72  52.67
943.1  47204.27  24650.98  52.22
944.1  47444.18  24599.83  51.85
945.2  47562.06  24434.20  51.37
946.2  47690.89  24315.97  50.99
947.2  47775.50  24130.28  50.51
948.2  47985.58  24032.22  50.08
949.2  48136.56  23889.64  49.63
950.2  48233.65  23677.06  49.09
951.2  48323.52  23517.73  48.67
952.2  48463.74  23355.86  48.19
953.2  48695.24  23225.25  47.70
954.2  48797.78  23119.52  47.38
955.2  48960.29  22958.75  46.89
956.2  48906.22  22770.72  46.56
957.2  49060.45  22645.82  46.16
958.2  49199.73  22571.75  45.88
959.2  49317.30  22527.45  45.68
960.1  49392.04  22442.00  45.44
961.1  49506.93  22423.18  45.29
962.1  49590.00  22379.63  45.13
963.1  49637.84  22368.35  45.06
964.1  49794.22  22353.23  44.89
965.1  50008.78  22423.71  44.84
966.1  50066.51  22366.32  44.67
967.0  50150.17  22406.75  44.68
968.0  50264.18  22406.16  44.58
969.0  50418.40  22363.00  44.35
970.0  50457.74  22380.78  44.36
971.0  50491.56  22431.83  44.43
971.9  50612.30  22427.18  44.31
972.9  50699.43  22432.82  44.25
973.9  50862.18  22297.03  43.84
974.9  50875.49  22330.63  43.89
975.8  51031.74  22321.89  43.74
976.8  51085.74  22279.14  43.61
977.8  51067.57  22274.77  43.62
978.8  51177.15  22253.95  43.48
979.7  51448.01  22230.58  43.21
980.7  51535.44  22391.67  43.45
981.7  51694.75  22474.97  43.48
982.6  52042.84  22550.30  43.33
983.6  52579.15  22841.47  43.44
984.6  52890.69  23015.90  43.52
985.5  53426.52  23245.47  43.51
986.5  54145.83  23452.65  43.31
987.5  55267.97  23940.28  43.32
988.4  56124.20  24487.65  43.63
989.4  57550.09  24934.21  43.33
990.4  59555.76  25330.66  42.53
991.3  60159.14  26279.15  43.68
992.3  61819.87  26677.75  43.15
993.2  64401.37  27286.43  42.37
994.2  65783.25  27704.87  42.12
995.2  66865.63  28219.72  42.20
996.1  67239.15  28108.00  41.80
997.1  67748.72  28782.35  42.48
998.0  68177.40  28173.14  41.32
999.0  68291.84  27617.85  40.44
1000.0  67877.72  27701.11  40.81
1000.9  69647.73  28318.16  40.66
1001.9  68518.52  27920.96  40.75
1002.8  68157.23  27221.08  39.94
1003.8  68953.18  27930.40  40.51
1004.8  68910.36  28005.29  40.64
961.5  56655.07  23138.99  40.84
965.5  55527.70  22973.05  41.37
969.5  53038.24  22383.90  42.20
973.4  50487.36  21712.57  43.01
977.4  48670.38  21047.19  43.24
981.4  47904.02  20738.00  43.29
985.3  47871.91  20773.78  43.39
989.3  48250.25  21024.33  43.57
993.3  48675.97  21308.15  43.78
997.2  48896.32  21514.47  44.00
1001.2  48932.78  21726.47  44.40
1005.2  48882.01  21981.39  44.97
1009.1  48947.63  22325.89  45.61
1013.1  49129.58  22742.06  46.29
1017.1  49323.49  23150.98  46.94
1021.0  49414.49  23498.94  47.55
1025.0  49463.51  23829.00  48.17
1029.0  49330.65  24082.31  48.82
1032.9  49190.57  24331.45  49.46
1036.9  49188.06  24653.36  50.12
1040.9  49321.15  25054.12  50.80
1044.8  49555.46  25486.05  51.43
1048.8  49763.47  25868.23  51.98
1052.7  49927.70  26195.32  52.47
1056.7  50023.36  26431.91  52.84
1060.7  50077.97  26609.24  53.14
1064.6  50107.10  26738.27  53.36
1068.6  50042.80  26767.47  53.49
1072.5  49987.91  26741.12  53.50
1076.5  49968.24  26691.66  53.42
1080.4  49982.60  26610.67  53.24
1084.4  50098.78  26534.33  52.96
1088.3  50235.79  26414.35  52.58
1092.3  50255.62  26196.75  52.13
1096.2  50256.56  25963.25  51.66
1100.2  50314.19  25751.45  51.18
1104.1  50217.00  25442.85  50.67
1108.1  50149.09  25156.06  50.16
1112.0  50046.48  24820.32  49.59
1116.0  49816.26  24370.21  48.92
1119.9  49626.65  23875.95  48.11
1123.9  49721.95  23401.67  47.07
1127.8  49701.12  22703.36  45.68
1131.8  49690.02  21798.28  43.87
1135.7  49759.69  20741.75  41.68
1139.6  49794.79  19603.26  39.37
1143.6  49779.05  18524.74  37.21
1147.5  49763.91  17622.14  35.41
1151.4  49638.34  16903.61  34.05
1155.4  49664.96  16459.54  33.14
1159.3  49707.76  16186.26  32.56
1163.2  49565.69  15952.92  32.19
1167.2  49549.38  15820.26  31.93
1171.1  49585.36  15732.59  31.73
1175.0  49527.04  15634.63  31.57
1179.0  49496.46  15548.92  31.41
1182.9  49601.09  15501.86  31.25
1186.8  49595.04  15426.94  31.11
1190.7  49374.50  15293.20  30.97
1194.7  49102.19  15162.04  30.88
1198.6  48856.50  15066.98  30.84
1202.5  48670.31  15016.84  30.85
1206.4  48530.81  15008.01  30.92
1210.3  48416.28  15025.31  31.03
1214.2  48280.28  15053.84  31.18
1218.2  48108.01  15079.55  31.35
1222.1  47952.55  15137.05  31.57
1226.0  47838.35  15211.66  31.80
1229.9  47741.34  15273.54  31.99
1233.8  47631.90  15321.03  32.17
1237.7  47561.43  15382.68  32.34
1241.6  47466.83  15433.02  32.51
1245.5  47305.84  15445.37  32.65
1249.4  47168.26  15450.21  32.76
1253.3  47043.81  15457.60  32.86
1257.2  46964.39  15480.18  32.96
1261.1  46857.20  15482.02  33.04
1265.0  46722.82  15453.56  33.07
1268.9  46520.84  15371.15  33.04
1272.8  46583.25  15347.25  32.95
1276.7  46779.70  15354.17  32.82
1280.6  46878.95  15295.21  32.63
1284.5  46815.30  15145.85  32.35
1288.4  46796.02  14991.27  32.04
1292.3  46670.25  14784.00  31.68
1296.2  46517.96  14535.28  31.25
1300.1  46340.11  14247.85  30.75
1303.9  46091.28  13907.47  30.17
1307.8  45847.70  13542.31  29.54
1311.7  45593.83  13154.51  28.85
1315.6  45327.77  12753.54  28.14
1319.5  45069.41  12319.50  27.33
1323.3  44835.68  11883.80  26.51
1327.2  44616.78  11453.33  25.67
1331.1  44372.40  11009.12  24.81
1335.0  44053.27  10565.71  23.98
1338.8  43798.92  10170.30  23.22
1342.7  43539.15  9810.27  22.53
1346.5  42992.99  9423.28  21.92
1350.4  42429.86  9053.45  21.34
1354.3  41738.36  8671.10  20.77
1358.1  41058.17  8305.92  20.23
