/*** Spectra Vista SIG Data ***/
name= GT2.sig
comm= Averaged Ref/Tar of files: GD5T4,GD5T5,GD5T6
data=
346.4  366.28  81.75  22.32
347.9  400.03  79.48  19.87
349.5  432.12  80.08  18.53
351.1  468.00  84.45  18.04
352.6  496.51  84.33  16.99
354.2  520.33  85.08  16.35
355.7  575.84  90.03  15.63
357.3  598.14  94.55  15.81
358.8  616.87  94.83  15.37
360.4  668.33  94.74  14.18
361.9  686.05  100.30  14.62
363.5  715.01  97.18  13.59
365.1  743.78  97.78  13.15
366.6  778.54  99.43  12.77
368.2  824.27  97.14  11.78
369.7  873.39  94.69  10.84
371.3  928.49  95.27  10.26
372.8  977.74  98.94  10.12
374.4  1016.27  97.90  9.63
375.9  1052.58  100.18  9.52
377.4  1084.71  96.06  8.86
379.0  1129.79  99.72  8.83
380.5  1157.14  95.20  8.23
382.1  1186.43  94.76  7.99
383.6  1234.64  93.56  7.58
385.2  1293.88  92.22  7.13
386.7  1345.63  94.94  7.06
388.3  1410.38  95.11  6.74
389.8  1464.46  98.82  6.75
391.3  1527.57  100.63  6.59
392.9  1567.60  105.45  6.73
394.4  1609.87  111.38  6.92
395.9  1662.63  119.11  7.16
397.5  1749.05  124.89  7.14
399.0  1827.74  125.87  6.89
400.6  1876.29  119.80  6.39
402.1  1904.04  117.48  6.17
403.6  1943.17  113.80  5.86
405.1  1994.81  113.64  5.70
406.7  2061.92  118.57  5.75
408.2  2135.06  120.14  5.63
409.7  2198.56  125.89  5.73
411.3  2272.05  129.44  5.70
412.8  2335.64  137.46  5.89
414.3  2399.77  142.28  5.93
415.8  2475.00  148.00  5.98
417.4  2547.71  150.11  5.89
418.9  2612.23  156.35  5.99
420.4  2658.25  159.02  5.98
421.9  2705.56  159.56  5.90
423.5  2743.63  161.27  5.88
425.0  2788.02  162.72  5.84
426.5  2844.45  162.83  5.72
428.0  2917.63  164.34  5.63
429.5  3009.90  167.09  5.55
431.1  3112.45  170.92  5.49
432.6  3227.88  175.59  5.44
434.1  3329.29  181.98  5.47
435.6  3423.98  185.76  5.43
437.1  3517.80  193.57  5.50
438.6  3607.74  198.73  5.51
440.1  3694.39  202.35  5.48
441.6  3790.73  209.86  5.54
443.1  3873.83  217.62  5.62
444.7  3959.99  224.13  5.66
446.2  4024.76  233.37  5.80
447.7  4101.41  242.36  5.91
449.2  4174.20  247.82  5.94
450.7  4238.00  252.51  5.96
452.2  4313.18  257.28  5.97
453.7  4393.64  264.60  6.02
455.2  4491.99  272.00  6.06
456.7  4618.24  285.94  6.19
458.2  4761.06  297.19  6.24
459.7  4899.13  311.03  6.35
461.2  5044.37  324.05  6.42
462.7  5165.05  334.97  6.49
464.2  5287.79  347.33  6.57
465.7  5408.14  361.23  6.68
467.2  5518.98  370.50  6.71
468.7  5631.00  386.00  6.85
470.2  5705.20  401.08  7.03
471.7  5821.13  416.89  7.16
473.2  6011.22  423.11  7.04
474.6  6153.75  421.49  6.85
476.1  6204.18  420.04  6.77
477.6  6220.94  424.78  6.83
479.1  6250.52  431.77  6.91
480.6  6293.37  436.57  6.94
482.1  6374.96  446.38  7.00
483.6  6474.12  457.77  7.07
485.1  6599.29  472.05  7.15
486.6  6739.10  490.63  7.28
488.0  6898.13  512.53  7.43
489.5  7058.36  535.64  7.59
491.0  7224.81  561.90  7.78
492.5  7392.87  592.06  8.01
494.0  7557.79  624.68  8.27
495.4  7702.20  657.91  8.54
496.9  7844.83  692.49  8.83
498.4  7990.29  731.84  9.16
499.9  8131.50  771.16  9.48
501.4  8263.45  815.73  9.87
502.8  8392.79  861.32  10.26
504.3  8499.60  906.72  10.67
505.8  8611.18  956.03  11.10
507.2  8674.01  1005.28  11.59
508.7  8728.20  1054.10  12.08
510.2  8764.92  1103.14  12.59
511.6  8789.76  1147.71  13.06
513.1  8840.43  1197.17  13.54
514.6  8904.34  1248.90  14.03
516.0  8958.85  1301.22  14.52
517.5  9056.55  1363.47  15.06
519.0  9171.31  1430.46  15.60
520.5  9287.32  1499.51  16.15
521.9  9437.16  1574.98  16.69
523.4  9612.27  1653.59  17.20
524.8  9785.79  1733.36  17.71
526.3  9984.58  1816.74  18.20
527.8  10184.06  1901.45  18.67
529.2  10366.76  1980.90  19.11
530.7  10567.61  2062.60  19.52
532.1  10746.40  2140.08  19.91
533.6  10959.02  2222.03  20.28
535.0  11168.56  2305.15  20.64
536.5  11376.00  2388.61  21.00
538.0  11592.92  2478.36  21.38
539.4  11785.91  2567.15  21.78
540.9  12037.93  2650.55  22.02
542.3  12246.63  2715.91  22.18
543.8  12400.56  2770.97  22.35
545.2  12445.48  2818.02  22.64
546.6  12442.01  2857.71  22.97
548.1  12455.19  2899.00  23.28
549.5  12460.55  2933.46  23.54
551.0  12456.77  2967.58  23.82
552.4  12484.13  2998.74  24.02
553.9  12491.52  3025.10  24.22
555.3  12509.64  3055.22  24.42
556.8  12569.08  3090.74  24.59
558.2  12630.94  3126.38  24.75
559.6  12713.51  3165.86  24.90
561.1  12831.00  3212.84  25.04
562.5  12959.42  3264.18  25.19
564.0  13129.35  3325.33  25.33
565.4  13288.41  3382.13  25.45
566.8  13487.87  3448.04  25.56
568.3  13678.39  3508.14  25.65
569.7  13879.32  3568.96  25.71
571.1  14074.77  3625.69  25.76
572.6  14269.77  3679.78  25.79
574.0  14463.08  3731.31  25.80
575.4  14650.03  3780.45  25.81
576.9  14818.07  3827.90  25.83
578.3  14977.46  3872.92  25.86
579.7  15131.24  3917.39  25.89
581.1  15254.19  3960.08  25.96
582.6  15387.18  4005.50  26.03
584.0  15508.86  4044.53  26.08
585.4  15681.05  4086.26  26.06
586.8  15909.04  4129.99  25.96
588.3  16162.38  4174.56  25.83
589.7  16371.81  4215.12  25.75
591.1  16519.39  4246.72  25.71
592.5  16589.78  4269.94  25.74
594.0  16627.80  4285.05  25.77
595.4  16637.76  4296.20  25.82
596.8  16651.64  4304.73  25.85
598.2  16659.51  4310.03  25.87
599.6  16659.36  4309.88  25.87
601.0  16705.59  4316.28  25.84
602.4  16752.94  4318.14  25.78
603.9  16822.23  4327.80  25.73
605.3  16905.11  4339.37  25.67
606.7  16973.10  4346.88  25.61
608.1  17114.04  4367.23  25.52
609.5  17255.15  4389.60  25.44
610.9  17434.91  4417.68  25.34
612.3  17598.49  4441.28  25.24
613.7  17818.60  4470.09  25.09
615.1  17967.42  4482.75  24.95
616.5  18122.06  4495.50  24.81
617.9  18356.64  4532.83  24.69
619.3  18578.68  4570.93  24.60
620.7  18848.67  4626.33  24.54
622.1  19119.58  4602.91  24.07
623.5  19414.06  4540.14  23.39
624.9  19741.18  4500.28  22.80
626.3  19952.52  4474.24  22.42
627.7  19741.37  4422.04  22.40
629.1  19544.02  4421.32  22.62
630.5  19457.12  4464.18  22.94
631.9  19461.81  4537.39  23.31
633.3  19457.49  4603.48  23.66
634.7  19533.17  4674.79  23.93
636.1  19566.68  4712.32  24.08
637.5  19597.55  4742.94  24.20
638.9  19677.50  4774.27  24.26
640.2  19731.43  4797.45  24.31
641.6  19754.28  4803.86  24.32
643.0  19715.36  4787.40  24.28
644.4  19707.26  4766.53  24.19
645.8  19650.11  4714.99  23.99
647.2  19716.78  4676.53  23.72
648.5  19765.84  4608.59  23.32
649.9  19671.60  4503.85  22.90
651.3  19608.23  4416.60  22.52
652.7  19503.68  4316.47  22.13
654.1  19390.95  4188.73  21.60
655.5  19238.75  4052.10  21.06
656.8  19118.09  3922.65  20.52
658.2  19225.93  3836.69  19.96
659.6  19449.31  3768.42  19.38
660.9  19643.18  3691.41  18.79
662.3  19825.21  3610.66  18.21
663.7  20008.80  3524.50  17.61
665.0  20165.89  3438.07  17.05
666.4  20328.89  3360.99  16.53
667.8  20535.62  3300.33  16.07
669.1  20711.76  3242.96  15.66
670.5  20914.18  3202.37  15.31
671.9  21055.86  3161.46  15.01
673.2  21237.33  3146.85  14.82
674.6  21400.77  3143.60  14.69
676.0  21596.49  3160.56  14.63
677.3  21793.24  3194.04  14.66
678.7  21992.69  3251.25  14.78
680.0  22269.19  3345.65  15.02
681.4  22542.00  3472.46  15.40
682.8  22829.63  3636.36  15.93
684.1  23112.18  3849.92  16.66
685.5  23364.31  4108.11  17.58
686.8  23617.23  4407.66  18.66
688.2  23841.32  4745.57  19.90
689.5  23927.84  5092.58  21.28
690.9  23997.39  5469.93  22.79
692.2  24047.78  5864.32  24.39
693.6  24110.83  6280.71  26.05
694.9  24095.99  6667.62  27.67
696.2  24121.97  7056.29  29.25
697.6  24149.95  7436.22  30.79
698.9  24174.48  7810.53  32.31
700.3  24215.57  8170.56  33.74
701.6  24264.40  8518.10  35.11
703.0  24323.35  8845.10  36.36
704.3  24329.34  9121.22  37.49
705.6  24327.41  9378.12  38.55
707.0  24334.75  9618.76  39.53
708.3  24282.08  9804.06  40.38
709.6  24223.21  9975.27  41.18
711.0  24124.28  10114.23  41.93
712.3  24015.02  10241.32  42.65
713.6  23977.17  10380.94  43.30
714.9  23907.38  10499.69  43.92
716.3  23880.58  10626.74  44.50
717.6  23876.83  10753.32  45.04
718.9  23805.06  10827.60  45.48
720.2  23675.16  10863.09  45.88
721.6  23576.15  10904.73  46.25
722.9  23446.45  10937.24  46.65
724.2  23274.82  10935.72  46.99
725.5  23133.68  10951.89  47.34
726.8  23009.81  10948.18  47.58
728.1  22933.91  10960.42  47.79
729.5  22856.87  10971.89  48.00
730.8  22796.53  10983.03  48.18
732.1  22719.29  10984.53  48.35
733.4  22660.56  10984.71  48.48
734.7  22602.67  10979.88  48.58
736.0  22569.89  10995.97  48.72
737.3  22520.76  10994.35  48.82
738.6  22554.56  11049.72  48.99
739.9  22633.16  11151.08  49.27
741.2  22698.59  11213.93  49.40
742.5  22841.25  11333.83  49.62
743.8  23091.34  11512.46  49.86
745.1  23491.07  11750.82  50.02
746.4  23957.57  12005.54  50.11
747.7  24466.55  12250.71  50.07
749.0  24948.63  12483.37  50.04
750.3  25229.30  12586.25  49.89
751.6  25175.69  12539.01  49.81
752.9  24925.64  12412.87  49.80
754.2  24630.59  12291.32  49.90
755.4  24314.44  12155.64  49.99
756.7  24210.69  12152.84  50.20
758.0  24235.24  12209.71  50.38
759.3  24394.18  12337.72  50.58
760.6  24621.52  12500.90  50.77
761.9  24823.09  12644.79  50.94
763.1  24955.30  12739.46  51.05
764.4  25125.21  12850.57  51.15
765.7  25257.38  12941.07  51.24
767.0  25349.99  13011.19  51.33
768.2  25431.84  13071.07  51.40
769.5  25509.93  13123.88  51.45
770.8  25646.87  13213.76  51.52
772.0  25674.66  13252.39  51.62
773.3  25762.96  13310.47  51.67
774.6  25839.71  13382.59  51.79
775.8  25921.43  13443.29  51.86
777.1  25948.26  13482.14  51.96
778.4  25918.05  13476.95  52.00
779.6  25945.86  13509.51  52.07
780.9  25904.00  13515.20  52.17
782.1  25811.51  13487.31  52.25
783.4  25819.04  13516.39  52.35
784.6  25849.06  13563.32  52.47
785.9  26028.56  13726.69  52.74
787.1  26416.14  13966.84  52.87
788.4  26716.91  14101.85  52.78
789.6  26732.54  14027.34  52.47
790.9  26499.75  13844.38  52.24
792.1  26215.36  13697.18  52.25
793.4  25939.41  13582.26  52.36
794.6  25766.06  13507.97  52.43
795.8  25608.38  13450.16  52.52
797.1  25427.85  13378.83  52.61
798.3  25301.10  13348.42  52.76
799.5  25235.55  13331.13  52.83
800.8  25155.70  13305.24  52.89
802.0  25074.70  13274.94  52.94
803.2  24986.56  13234.86  52.97
804.5  24925.76  13206.91  52.98
805.7  24855.66  13179.77  53.03
806.9  24776.64  13148.15  53.07
808.1  24708.89  13121.60  53.10
809.4  24677.19  13119.73  53.17
810.6  24617.78  13095.20  53.19
811.8  24606.91  13100.52  53.24
813.0  24601.75  13107.42  53.28
814.2  24620.30  13117.79  53.28
815.4  24684.78  13139.50  53.23
816.6  24715.54  13140.56  53.17
817.9  24752.29  13134.48  53.06
819.1  24717.85  13079.05  52.91
820.3  24615.89  13009.85  52.85
821.5  24558.22  12952.25  52.74
822.7  24525.20  12913.23  52.65
823.9  24512.51  12895.73  52.61
825.1  24512.73  12856.94  52.45
826.3  24527.23  12841.34  52.36
827.5  24554.23  12820.92  52.21
828.7  24585.24  12795.66  52.05
829.9  24620.63  12778.31  51.90
831.0  24677.45  12785.13  51.81
832.2  24735.00  12782.75  51.68
833.4  24800.15  12784.14  51.55
834.6  24827.34  12791.56  51.52
835.8  24886.58  12799.08  51.43
837.0  24941.18  12824.58  51.42
838.1  25036.55  12869.47  51.40
839.3  25073.20  12888.30  51.40
840.5  25138.07  12911.01  51.36
841.7  25214.76  12966.35  51.42
842.9  25311.78  13018.74  51.43
844.0  25352.29  13044.21  51.45
845.2  25454.19  13097.49  51.46
846.4  25527.43  13125.38  51.42
847.5  25656.16  13195.70  51.43
848.7  25745.00  13236.70  51.41
849.9  25879.71  13283.22  51.33
851.0  25913.04  13274.91  51.23
852.2  25966.07  13284.70  51.16
853.3  25941.98  13256.13  51.10
854.5  25934.86  13247.94  51.08
855.6  25916.94  13241.88  51.09
856.8  25944.85  13262.32  51.12
857.9  25943.54  13264.60  51.13
859.1  25996.60  13302.72  51.17
860.2  26027.46  13306.90  51.13
861.4  26023.97  13326.33  51.21
862.5  26059.24  13334.31  51.17
863.7  26115.12  13352.54  51.13
864.8  26101.25  13362.07  51.19
865.9  26082.46  13340.26  51.15
867.1  26099.25  13352.17  51.16
868.2  26099.69  13358.07  51.18
869.3  26128.19  13361.23  51.14
870.5  26099.47  13331.78  51.08
871.6  26087.08  13341.22  51.14
872.7  26136.21  13366.12  51.14
873.9  26148.82  13372.26  51.14
875.0  26142.73  13349.45  51.06
876.1  26142.29  13336.62  51.02
877.2  26184.05  13341.36  50.95
878.3  26169.01  13313.76  50.88
879.4  26191.11  13315.41  50.84
880.5  26214.48  13321.97  50.82
881.7  26220.35  13299.17  50.72
882.8  26271.44  13297.54  50.62
883.9  26272.50  13282.21  50.56
885.0  26275.91  13241.32  50.39
886.1  26278.81  13207.70  50.26
887.2  26194.66  13128.16  50.12
888.3  26154.69  13083.49  50.02
889.4  26083.75  13030.18  49.96
890.5  26060.47  12996.02  49.87
891.6  26043.45  12961.12  49.77
892.7  26025.13  12940.34  49.72
893.8  26046.70  12950.36  49.72
894.9  26070.72  12942.69  49.64
896.0  26059.51  12904.79  49.52
897.0  26054.12  12902.11  49.52
898.1  26079.30  12892.91  49.44
899.2  26095.96  12882.97  49.37
900.3  26052.56  12824.86  49.23
901.4  26029.33  12779.29  49.10
902.4  26018.83  12776.92  49.11
903.5  26017.27  12740.68  48.97
904.6  26012.16  12722.36  48.91
905.7  26050.43  12711.46  48.80
906.7  26024.14  12690.58  48.76
907.8  26076.86  12678.96  48.62
908.9  26057.48  12632.75  48.48
909.9  26017.06  12602.74  48.44
911.0  26009.49  12546.41  48.24
912.1  25979.15  12505.53  48.14
913.1  25944.88  12450.78  47.99
914.2  25856.17  12388.86  47.91
915.2  25844.13  12354.97  47.81
916.3  25883.78  12317.28  47.59
917.3  25847.25  12297.44  47.58
918.4  25819.06  12209.32  47.29
919.4  25792.96  12153.53  47.12
920.5  25804.34  12121.22  46.97
921.5  25824.68  12086.28  46.80
922.6  25820.42  12007.75  46.50
923.6  25802.74  11960.04  46.35
924.7  25837.63  11905.98  46.08
925.7  25830.51  11850.43  45.88
926.7  25889.20  11776.66  45.49
927.8  25949.67  11716.42  45.15
928.8  26061.51  11697.28  44.88
929.9  26114.55  11653.19  44.62
930.9  26214.58  11640.52  44.40
931.9  26363.30  11635.52  44.14
932.9  26568.63  11649.56  43.85
934.0  26604.58  11590.95  43.57
935.0  26610.78  11520.93  43.29
936.0  26639.41  11454.12  43.00
937.0  26632.91  11370.04  42.69
938.1  26589.57  11290.41  42.46
939.1  26594.73  11212.33  42.16
940.1  26647.30  11159.90  41.88
941.1  26757.94  11133.76  41.61
942.1  26950.86  11115.28  41.24
943.1  27064.46  11073.52  40.92
944.1  27200.04  11055.74  40.65
945.2  27250.86  10979.33  40.29
946.2  27341.46  10907.56  39.89
947.2  27385.31  10849.80  39.62
948.2  27528.14  10795.51  39.22
949.2  27562.84  10717.58  38.88
950.2  27601.23  10634.91  38.53
951.2  27696.06  10561.49  38.13
952.2  27776.58  10494.67  37.78
953.2  27874.44  10458.71  37.52
954.2  27994.28  10396.73  37.14
955.2  28013.52  10315.41  36.82
956.2  27975.49  10243.59  36.62
957.2  28074.45  10187.80  36.29
958.2  28163.05  10162.83  36.09
959.2  28188.45  10122.09  35.91
960.1  28244.69  10097.40  35.75
961.1  28322.00  10073.14  35.57
962.1  28304.06  10045.07  35.49
963.1  28357.97  10047.97  35.43
964.1  28464.51  10027.33  35.23
965.1  28543.56  10058.02  35.24
966.1  28584.14  10056.58  35.18
967.0  28655.80  10048.91  35.07
968.0  28697.14  10052.84  35.03
969.0  28718.80  10050.87  35.00
970.0  28760.47  10076.83  35.04
971.0  28834.42  10095.28  35.01
971.9  28848.78  10081.52  34.95
972.9  28890.31  10061.21  34.83
973.9  28948.56  10071.45  34.79
974.9  29046.70  10035.05  34.55
975.8  29063.68  10020.91  34.48
976.8  29052.58  9997.17  34.41
977.8  29165.54  10022.37  34.36
978.8  29197.88  10019.78  34.32
979.7  29189.32  10035.36  34.38
980.7  29306.81  10055.24  34.31
981.7  29477.75  10095.47  34.25
982.6  29574.16  10187.72  34.45
983.6  29987.80  10287.15  34.30
984.6  30188.75  10433.23  34.56
985.5  30563.82  10593.62  34.66
986.5  30946.12  10860.78  35.10
987.5  31666.80  10974.16  34.66
988.4  32276.75  11317.31  35.06
989.4  33081.94  11651.50  35.22
990.4  33865.04  12037.66  35.55
991.3  34680.98  12270.42  35.38
992.3  35996.38  12533.52  34.82
993.2  37249.57  12955.07  34.78
994.2  37192.84  13240.99  35.60
995.2  38468.72  13429.08  34.91
996.1  38815.33  13671.96  35.22
997.1  39248.66  13701.74  34.91
998.0  39056.40  13749.68  35.20
999.0  38843.24  13730.64  35.35
1000.0  39939.10  13800.55  34.55
1000.9  41119.71  13903.31  33.81
1001.9  38921.76  13811.82  35.49
1002.8  38260.04  13547.82  35.41
1003.8  38840.71  13645.16  35.13
1004.8  39018.78  13629.95  34.93
961.5  34611.80  11891.76  34.36
965.5  33947.81  11685.55  34.42
969.5  32673.62  11299.36  34.58
973.4  31329.21  10803.69  34.48
977.4  30182.73  10375.93  34.38
981.4  29653.05  10235.09  34.52
985.3  29580.67  10354.11  35.00
989.3  29694.74  10679.60  35.96
993.3  29811.28  11066.31  37.12
997.2  29873.76  11397.91  38.15
1001.2  29847.48  11616.54  38.92
1005.2  29766.32  11759.94  39.51
1009.1  29802.16  11898.18  39.92
1013.1  29912.80  12084.10  40.40
1017.1  29980.27  12311.60  41.07
1021.0  29997.45  12514.82  41.72
1025.0  29986.05  12708.19  42.38
1029.0  29874.56  12838.97  42.98
1032.9  29757.39  12950.12  43.52
1036.9  29719.10  13096.23  44.07
1040.9  29786.91  13266.45  44.54
1044.8  29914.06  13472.15  45.04
1048.8  30017.23  13670.10  45.54
1052.7  30081.05  13843.62  46.02
1056.7  30106.96  13968.35  46.40
1060.7  30124.55  14058.13  46.67
1064.6  30126.20  14132.53  46.91
1068.6  30068.46  14133.89  47.01
1072.5  30024.99  14098.24  46.96
1076.5  29992.38  14073.87  46.92
1080.4  29983.51  14027.78  46.78
1084.4  30049.89  13985.48  46.54
1088.3  30134.74  13946.21  46.28
1092.3  30115.74  13826.57  45.91
1096.2  30104.84  13709.11  45.54
1100.2  30142.18  13599.70  45.12
1104.1  30082.71  13422.86  44.62
1108.1  30052.27  13276.62  44.18
1112.0  29977.43  13095.02  43.68
1116.0  29868.35  12861.14  43.06
1119.9  29779.89  12628.81  42.41
1123.9  29822.35  12406.02  41.60
1127.8  29798.40  12074.24  40.52
1131.8  29786.58  11653.52  39.12
1135.7  29821.64  11153.05  37.40
1139.6  29831.38  10608.48  35.56
1143.6  29819.95  10085.68  33.82
1147.5  29803.64  9626.04  32.30
1151.4  29713.98  9235.44  31.08
1155.4  29731.43  8985.38  30.22
1159.3  29760.66  8822.15  29.64
1163.2  29674.15  8678.12  29.24
1167.2  29672.28  8618.72  29.05
1171.1  29681.80  8585.03  28.92
1175.0  29651.52  8537.47  28.79
1179.0  29638.87  8500.48  28.68
1182.9  29697.98  8484.47  28.57
1186.8  29706.14  8453.45  28.46
1190.7  29571.10  8382.25  28.35
1194.7  29411.94  8313.51  28.27
1198.6  29289.65  8262.87  28.21
1202.5  29196.66  8234.34  28.20
1206.4  29112.98  8215.67  28.22
1210.3  29056.59  8209.27  28.25
1214.2  29008.58  8217.92  28.33
1218.2  28915.95  8228.33  28.46
1222.1  28833.10  8247.55  28.60
1226.0  28785.60  8275.77  28.75
1229.9  28734.48  8299.80  28.88
1233.8  28673.70  8325.33  29.03
1237.7  28644.25  8363.06  29.20
1241.6  28596.57  8389.83  29.34
1245.5  28494.07  8397.37  29.47
1249.4  28422.55  8391.99  29.53
1253.3  28356.92  8396.33  29.61
1257.2  28323.43  8411.09  29.70
1261.1  28264.79  8402.94  29.73
1265.0  28184.91  8382.95  29.74
1268.9  28067.43  8344.97  29.73
1272.8  28106.70  8337.20  29.66
1276.7  28238.01  8344.47  29.55
1280.6  28297.17  8311.71  29.37
1284.5  28250.81  8238.41  29.16
1288.4  28234.52  8172.59  28.95
1292.3  28165.50  8070.33  28.65
1296.2  28076.33  7943.88  28.29
1300.1  27971.71  7803.69  27.90
1303.9  27830.79  7642.67  27.46
1307.8  27679.51  7467.08  26.98
1311.7  27513.83  7272.94  26.43
1315.6  27356.90  7070.56  25.85
1319.5  27190.78  6846.90  25.18
1323.3  27036.43  6622.45  24.49
1327.2  26898.46  6401.54  23.80
1331.1  26745.75  6177.62  23.10
1335.0  26551.82  5941.06  22.38
1338.8  26417.20  5731.18  21.69
1342.7  26306.22  5547.24  21.09
1346.5  26068.84  5353.80  20.54
1350.4  25867.11  5194.32  20.08
1354.3  25587.95  5029.02  19.65
1358.1  25293.52  4842.72  19.15
1362.0  25095.25  4662.84  18.58
1365.8  25024.00  4497.59  17.97
1369.7  25106.98  4351.95  17.33
1373.5  25078.13  4176.32  16.65
1377.4  24917.97  3951.42  15.86
1381.2  24782.40  3661.22  14.77
