/*** Spectra Vista SIG Data ***/
name= EXB.sig
comm= Averaged Ref/Tar of files: EXB4,EXB5,EXB6
data=
346.4  509.60  113.81  22.33
347.9  536.51  120.90  22.53
349.5  577.20  122.30  21.19
351.1  620.88  122.72  19.77
352.6  679.94  124.82  18.36
354.2  723.22  129.59  17.92
355.7  777.89  140.54  18.07
357.3  842.60  147.48  17.50
358.8  838.80  146.32  17.44
360.4  904.00  150.55  16.65
361.9  943.76  156.48  16.58
363.5  997.20  155.12  15.56
365.1  1040.25  156.73  15.07
366.6  1087.54  162.50  14.94
368.2  1161.70  159.82  13.76
369.7  1204.79  162.38  13.48
371.3  1287.37  163.75  12.72
372.8  1354.56  168.66  12.45
374.4  1435.13  174.89  12.19
375.9  1463.02  180.51  12.34
377.4  1512.41  178.67  11.81
379.0  1578.52  182.04  11.53
380.5  1618.77  185.88  11.48
382.1  1669.58  183.21  10.97
383.6  1726.52  184.09  10.66
385.2  1809.50  187.00  10.33
386.7  1900.67  194.22  10.22
388.3  1991.93  207.62  10.42
389.8  2077.97  215.57  10.37
391.3  2163.95  223.17  10.31
392.9  2236.17  238.22  10.65
394.4  2293.88  242.94  10.59
395.9  2364.42  259.99  11.00
397.5  2493.56  276.92  11.11
399.0  2617.23  279.33  10.67
400.6  2691.33  283.38  10.53
402.1  2739.96  278.64  10.17
403.6  2797.88  281.63  10.07
405.1  2865.39  286.39  9.99
406.7  2979.20  298.37  10.01
408.2  3089.54  309.47  10.02
409.7  3183.04  320.17  10.06
411.3  3295.62  337.52  10.24
412.8  3391.47  346.65  10.22
414.3  3507.27  360.92  10.29
415.8  3622.50  371.67  10.26
417.4  3739.34  387.26  10.36
418.9  3830.42  394.34  10.29
420.4  3913.23  406.78  10.39
421.9  3978.48  409.14  10.28
423.5  4044.22  413.45  10.22
425.0  4110.68  419.23  10.20
426.5  4198.95  426.27  10.15
428.0  4314.36  429.38  9.95
429.5  4445.73  438.71  9.87
431.1  4599.50  448.40  9.75
432.6  4769.72  465.25  9.75
434.1  4937.63  479.45  9.71
435.6  5085.18  493.55  9.71
437.1  5233.80  505.44  9.66
438.6  5364.45  521.38  9.72
440.1  5501.44  537.92  9.78
441.6  5653.06  555.89  9.83
443.1  5799.60  571.86  9.86
444.7  5941.01  594.30  10.00
446.2  6051.88  615.78  10.18
447.7  6161.82  640.35  10.39
449.2  6292.08  660.10  10.49
450.7  6396.00  681.41  10.65
452.2  6529.70  700.59  10.73
453.7  6647.26  720.42  10.84
455.2  6815.62  740.74  10.87
456.7  7013.60  771.82  11.00
458.2  7232.90  795.46  11.00
459.7  7456.75  824.60  11.06
461.2  7667.16  847.20  11.05
462.7  7858.10  872.09  11.10
464.2  8041.02  893.53  11.11
465.7  8240.35  914.97  11.10
467.2  8402.63  934.52  11.12
468.7  8584.00  954.67  11.12
470.2  8698.25  977.24  11.23
471.7  8877.75  1001.93  11.29
473.2  9159.71  1031.44  11.26
474.6  9386.40  1041.32  11.09
476.1  9450.96  1046.43  11.07
477.6  9499.75  1056.53  11.12
479.1  9557.87  1066.72  11.16
480.6  9632.82  1077.31  11.18
482.1  9760.73  1097.22  11.24
483.6  9935.74  1119.35  11.27
485.1  10133.78  1146.51  11.31
486.6  10366.07  1181.81  11.40
488.0  10621.00  1223.30  11.52
489.5  10873.80  1273.05  11.71
491.0  11134.31  1320.75  11.86
492.5  11404.80  1381.54  12.11
494.0  11683.71  1447.52  12.39
495.4  11917.95  1511.84  12.69
496.9  12154.26  1588.51  13.07
498.4  12387.41  1668.13  13.47
499.9  12623.63  1753.00  13.89
501.4  12839.71  1849.23  14.40
502.8  13042.06  1947.86  14.94
504.3  13226.40  2055.36  15.54
505.8  13406.54  2171.07  16.19
507.2  13518.16  2281.29  16.88
508.7  13603.31  2399.88  17.64
510.2  13672.60  2519.79  18.43
511.6  13715.26  2642.02  19.26
513.1  13806.21  2773.33  20.09
514.6  13898.29  2914.96  20.97
516.0  13992.63  3056.87  21.85
517.5  14151.40  3216.42  22.73
519.0  14339.95  3382.05  23.58
520.5  14520.56  3556.83  24.50
521.9  14760.83  3739.93  25.34
523.4  15031.28  3930.29  26.15
524.8  15295.25  4113.39  26.89
526.3  15594.01  4301.49  27.58
527.8  15909.50  4484.50  28.19
529.2  16189.50  4654.97  28.75
530.7  16509.28  4823.64  29.22
532.1  16791.25  4972.43  29.61
533.6  17121.20  5126.81  29.94
535.0  17454.94  5274.65  30.22
536.5  17789.22  5412.37  30.42
538.0  18136.88  5551.89  30.61
539.4  18461.69  5675.29  30.74
540.9  18864.39  5819.65  30.85
542.3  19206.33  5935.69  30.90
543.8  19460.81  6021.30  30.94
545.2  19544.37  6067.07  31.04
546.6  19566.05  6092.18  31.14
548.1  19604.97  6119.31  31.21
549.5  19640.65  6142.30  31.27
551.0  19664.79  6155.87  31.30
552.4  19724.92  6177.30  31.32
553.9  19761.60  6183.85  31.29
555.3  19812.20  6188.83  31.24
556.8  19934.49  6201.23  31.11
558.2  20047.50  6204.38  30.95
559.6  20200.16  6208.33  30.73
561.1  20397.00  6225.48  30.52
562.5  20617.77  6236.08  30.25
564.0  20901.40  6258.21  29.94
565.4  21161.13  6265.47  29.61
566.8  21482.31  6280.21  29.23
568.3  21793.28  6280.77  28.82
569.7  22118.60  6282.52  28.40
571.1  22425.71  6275.83  27.98
572.6  22741.56  6263.79  27.54
574.0  23030.70  6251.96  27.15
575.4  23309.44  6239.70  26.77
576.9  23581.06  6227.53  26.41
578.3  23822.01  6205.73  26.05
579.7  24048.22  6186.55  25.73
581.1  24227.75  6161.07  25.43
582.6  24429.78  6141.66  25.14
584.0  24600.48  6119.73  24.88
585.4  24853.74  6118.53  24.62
586.8  25196.68  6137.09  24.36
588.3  25573.86  6168.24  24.12
589.7  25896.78  6190.70  23.91
591.1  26104.75  6189.02  23.71
592.5  26211.06  6169.39  23.54
594.0  26269.26  6149.69  23.41
595.4  26286.44  6113.88  23.26
596.8  26295.56  6086.65  23.15
598.2  26315.92  6059.64  23.03
599.6  26317.98  6026.73  22.90
601.0  26398.05  6013.02  22.78
602.4  26470.93  5990.31  22.63
603.9  26597.64  5978.26  22.48
605.3  26727.57  5964.56  22.32
606.7  26857.80  5939.04  22.11
608.1  27088.39  5928.35  21.89
609.5  27333.21  5924.57  21.68
610.9  27623.29  5921.95  21.44
612.3  27891.32  5912.03  21.20
613.7  28252.28  5916.90  20.94
615.1  28513.62  5898.09  20.69
616.5  28776.05  5878.37  20.43
617.9  29165.50  5891.86  20.20
619.3  29543.24  5906.61  19.99
620.7  29990.55  5947.72  19.83
622.1  30437.05  5963.72  19.59
623.5  30934.60  5962.14  19.27
624.9  31494.75  5989.27  19.02
626.3  31867.36  6062.63  19.02
627.7  31569.69  6023.12  19.08
629.1  31287.59  5973.03  19.09
630.5  31184.65  5938.15  19.04
631.9  31222.21  5919.34  18.96
633.3  31256.33  5894.26  18.86
634.7  31400.48  5885.59  18.74
636.1  31461.82  5835.70  18.55
637.5  31554.77  5778.43  18.31
638.9  31702.82  5725.55  18.06
640.2  31825.04  5655.83  17.77
641.6  31863.78  5565.77  17.47
643.0  31847.61  5454.72  17.13
644.4  31829.55  5324.88  16.73
645.8  31751.71  5183.18  16.32
647.2  31867.94  5088.86  15.97
648.5  31926.34  4983.13  15.61
649.9  31776.23  4864.16  15.31
651.3  31648.05  4749.80  15.01
652.7  31449.15  4628.08  14.72
654.1  31244.46  4513.94  14.45
655.5  31005.95  4406.39  14.21
656.8  30780.41  4307.08  13.99
658.2  30925.42  4253.78  13.75
659.6  31264.45  4212.04  13.47
660.9  31536.04  4148.97  13.16
662.3  31822.64  4091.62  12.86
663.7  32096.40  4020.24  12.53
665.0  32332.90  3944.53  12.20
666.4  32562.99  3877.79  11.91
667.8  32863.56  3831.62  11.66
669.1  33114.69  3789.52  11.44
670.5  33405.09  3764.46  11.27
671.9  33586.56  3746.26  11.15
673.2  33844.75  3751.07  11.08
674.6  34082.18  3767.50  11.05
676.0  34372.41  3814.51  11.10
677.3  34659.68  3872.40  11.17
678.7  34979.63  3960.43  11.32
680.0  35399.92  4088.38  11.55
681.4  35845.89  4256.42  11.87
682.8  36270.33  4479.32  12.35
684.1  36705.24  4754.57  12.95
685.5  37104.21  5091.38  13.72
686.8  37507.62  5499.25  14.66
688.2  37862.83  5969.63  15.77
689.5  38000.96  6473.77  17.04
690.9  38124.79  7031.88  18.44
692.2  38229.60  7629.94  19.96
693.6  38334.37  8262.77  21.55
694.9  38335.34  8891.43  23.19
696.2  38393.33  9539.25  24.85
697.6  38453.39  10190.15  26.50
698.9  38522.88  10847.93  28.16
700.3  38613.54  11493.82  29.77
701.6  38716.02  12130.62  31.33
703.0  38828.83  12745.47  32.82
704.3  38882.19  13321.15  34.26
705.6  38895.39  13874.86  35.67
707.0  38949.12  14418.09  37.02
708.3  38885.46  14884.66  38.28
709.6  38817.35  15326.60  39.48
711.0  38702.88  15738.94  40.67
712.3  38573.15  16120.11  41.79
713.6  38531.64  16531.03  42.90
714.9  38462.14  16896.92  43.93
716.3  38461.08  17278.11  44.92
717.6  38479.84  17665.49  45.91
718.9  38424.85  17979.87  46.79
720.2  38251.08  18220.53  47.63
721.6  38113.53  18474.61  48.47
722.9  37945.16  18709.88  49.31
724.2  37714.27  18865.10  50.02
725.5  37534.96  19036.25  50.72
726.8  37360.68  19194.53  51.38
728.1  37271.09  19364.67  51.96
729.5  37167.13  19540.44  52.57
730.8  37093.13  19693.94  53.09
732.1  36996.92  19825.28  53.59
733.4  36936.39  19951.91  54.02
734.7  36864.47  20060.14  54.42
736.0  36851.62  20193.59  54.80
737.3  36774.45  20280.09  55.15
738.6  36845.76  20443.20  55.48
739.9  37000.34  20645.01  55.80
741.2  37119.81  20798.96  56.03
742.5  37372.03  21004.07  56.20
743.8  37768.50  21332.08  56.48
745.1  38387.22  21769.37  56.71
746.4  39127.73  22247.01  56.86
747.7  39918.22  22737.10  56.96
749.0  40672.12  23225.49  57.10
750.3  41122.66  23527.55  57.21
751.6  41047.35  23518.49  57.30
752.9  40630.59  23313.54  57.38
754.2  40176.47  23067.97  57.42
755.4  39652.21  22791.26  57.48
756.7  39478.17  22727.54  57.57
758.0  39495.60  22789.20  57.70
759.3  39730.28  22960.57  57.79
760.6  40061.56  23196.09  57.90
761.9  40384.10  23396.63  57.94
763.1  40567.56  23513.69  57.96
764.4  40796.65  23657.51  57.99
765.7  40953.25  23775.27  58.05
767.0  41079.80  23854.18  58.07
768.2  41207.04  23929.47  58.07
769.5  41279.98  23993.13  58.12
770.8  41469.61  24115.15  58.15
772.0  41501.32  24136.25  58.16
773.3  41583.65  24184.68  58.16
774.6  41708.58  24256.13  58.16
775.8  41815.15  24328.14  58.18
777.1  41846.51  24340.06  58.17
778.4  41799.94  24319.36  58.18
779.6  41775.90  24316.74  58.21
780.9  41704.00  24288.53  58.24
782.1  41523.21  24189.02  58.25
783.4  41558.40  24191.23  58.21
784.6  41567.36  24217.38  58.26
785.9  41861.56  24392.63  58.27
787.1  42409.87  24744.50  58.35
788.4  42854.47  25027.10  58.40
789.6  42849.18  25006.12  58.36
790.9  42483.96  24743.69  58.24
792.1  42011.92  24463.11  58.23
793.4  41570.15  24213.63  58.25
794.6  41283.15  24051.14  58.26
795.8  41024.39  23907.33  58.28
797.1  40758.68  23743.03  58.25
798.3  40551.64  23637.35  58.29
799.5  40444.72  23590.57  58.33
800.8  40323.21  23524.73  58.34
802.0  40187.32  23455.18  58.36
803.2  40033.64  23373.22  58.38
804.5  39942.72  23314.99  58.37
805.7  39829.66  23264.94  58.41
806.9  39715.93  23204.20  58.43
808.1  39632.97  23146.49  58.40
809.4  39553.39  23130.36  58.48
810.6  39489.45  23095.80  58.49
811.8  39474.39  23080.76  58.47
813.0  39504.71  23113.06  58.51
814.2  39525.61  23137.83  58.54
815.4  39644.33  23208.83  58.54
816.6  39709.73  23245.97  58.54
817.9  39791.57  23290.36  58.53
819.1  39719.87  23256.14  58.55
820.3  39621.11  23173.27  58.49
821.5  39546.25  23119.20  58.46
822.7  39480.04  23094.26  58.50
823.9  39499.25  23101.12  58.48
825.1  39541.96  23107.82  58.44
826.3  39583.35  23141.92  58.46
827.5  39640.56  23176.49  58.47
828.7  39708.48  23215.26  58.46
829.9  39767.03  23250.86  58.47
831.0  39870.82  23319.32  58.49
832.2  39993.87  23370.13  58.43
833.4  40076.64  23432.47  58.47
834.6  40148.44  23483.13  58.49
835.8  40238.10  23543.10  58.51
837.0  40328.28  23609.93  58.54
838.1  40500.72  23700.82  58.52
839.3  40601.19  23748.07  58.49
840.5  40716.87  23815.19  58.49
841.7  40854.11  23916.73  58.54
842.9  40980.73  24007.81  58.58
844.0  41100.82  24048.42  58.51
845.2  41245.09  24150.15  58.55
846.4  41368.25  24242.15  58.60
847.5  41564.18  24370.69  58.63
848.7  41743.64  24478.82  58.64
849.9  41936.76  24567.92  58.58
851.0  42020.98  24606.66  58.56
852.2  42107.61  24654.75  58.55
853.3  42066.96  24655.04  58.61
854.5  42098.11  24634.97  58.52
855.6  42095.43  24639.38  58.53
856.8  42111.00  24668.17  58.58
857.9  42111.88  24670.64  58.58
859.1  42240.60  24733.87  58.55
860.2  42245.56  24744.04  58.57
861.4  42273.83  24761.93  58.58
862.5  42309.54  24783.88  58.58
863.7  42384.63  24839.08  58.60
864.8  42387.10  24839.08  58.60
865.9  42333.82  24798.41  58.58
867.1  42372.33  24814.43  58.56
868.2  42368.54  24823.21  58.59
869.3  42393.50  24837.36  58.59
870.5  42342.80  24788.66  58.54
871.6  42318.48  24792.59  58.59
872.7  42385.23  24837.32  58.60
873.9  42404.90  24836.27  58.57
875.0  42391.36  24817.20  58.54
876.1  42363.75  24809.24  58.56
877.2  42397.32  24837.38  58.58
878.3  42381.77  24812.57  58.55
879.4  42397.70  24840.63  58.59
880.5  42451.56  24846.62  58.53
881.7  42410.55  24824.97  58.53
882.8  42454.72  24851.40  58.54
883.9  42482.63  24882.98  58.57
885.0  42446.04  24837.08  58.51
886.1  42420.10  24821.56  58.51
887.2  42295.80  24744.09  58.50
888.3  42201.80  24683.81  58.49
889.4  42117.30  24629.16  58.48
890.5  42026.34  24564.44  58.45
891.6  41981.69  24547.21  58.47
892.7  41962.31  24522.34  58.44
893.8  41981.79  24556.15  58.49
894.9  41952.35  24554.83  58.53
896.0  41968.71  24510.04  58.40
897.0  41952.48  24543.68  58.50
898.1  41951.64  24548.72  58.52
899.2  41983.30  24538.05  58.45
900.3  41907.57  24496.63  58.45
901.4  41820.39  24422.25  58.40
902.4  41828.99  24454.07  58.46
903.5  41775.96  24422.87  58.46
904.6  41798.96  24413.59  58.41
905.7  41805.42  24431.43  58.44
906.7  41815.90  24418.94  58.40
907.8  41839.20  24439.77  58.41
908.9  41746.38  24405.18  58.46
909.9  41734.69  24384.12  58.43
911.0  41681.88  24353.98  58.43
912.1  41602.05  24308.18  58.43
913.1  41535.52  24274.50  58.44
914.2  41457.24  24179.42  58.32
915.2  41368.59  24175.80  58.44
916.3  41436.15  24213.80  58.44
917.3  41410.15  24193.47  58.42
918.4  41310.50  24121.53  58.39
919.4  41328.17  24106.22  58.33
920.5  41309.67  24112.98  58.37
921.5  41323.66  24132.24  58.40
922.6  41255.80  24084.32  58.38
923.6  41303.54  24125.84  58.41
924.7  41344.50  24121.57  58.34
925.7  41333.16  24123.68  58.36
926.7  41356.90  24123.76  58.33
927.8  41415.30  24137.69  58.28
928.8  41570.85  24236.05  58.30
929.9  41658.93  24299.72  58.33
930.9  41879.39  24369.51  58.19
931.9  42070.56  24476.58  58.18
932.9  42412.10  24668.66  58.16
934.0  42452.50  24683.30  58.14
935.0  42440.57  24677.27  58.15
936.0  42488.02  24681.82  58.09
937.0  42429.47  24674.99  58.16
938.1  42380.86  24636.96  58.13
939.1  42337.65  24595.82  58.09
940.1  42429.30  24636.10  58.06
941.1  42615.86  24746.07  58.07
942.1  42903.92  24900.02  58.04
943.1  43057.09  24974.38  58.00
944.1  43342.63  25078.98  57.86
945.2  43356.60  25133.81  57.97
946.2  43482.48  25166.01  57.88
947.2  43549.00  25198.50  57.86
948.2  43743.16  25275.03  57.78
949.2  43840.88  25335.81  57.79
950.2  43906.25  25336.83  57.71
951.2  44010.96  25378.42  57.66
952.2  44061.91  25446.37  57.75
953.2  44318.14  25517.31  57.58
954.2  44380.80  25563.18  57.60
955.2  44428.35  25602.12  57.63
956.2  44460.20  25559.40  57.49
957.2  44542.35  25603.60  57.48
958.2  44649.94  25652.79  57.45
959.2  44705.25  25692.06  57.47
960.1  44813.66  25716.09  57.38
961.1  44928.76  25751.49  57.32
962.1  44958.75  25778.25  57.34
963.1  44986.01  25797.33  57.35
964.1  45106.16  25842.19  57.29
965.1  45270.70  25937.30  57.29
966.1  45207.41  25933.60  57.37
967.0  45355.66  25999.60  57.32
968.0  45441.48  26020.41  57.26
969.0  45453.60  26028.11  57.26
970.0  45557.64  26130.90  57.36
971.0  45615.57  26154.14  57.34
971.9  45699.86  26168.19  57.26
972.9  45781.93  26167.66  57.16
973.9  45829.88  26256.97  57.29
974.9  45973.78  26257.39  57.11
975.8  45979.65  26221.65  57.03
976.8  46106.16  26253.81  56.94
977.8  46097.80  26271.82  56.99
978.8  46103.70  26304.76  57.06
979.7  46387.55  26329.06  56.76
980.7  46405.76  26366.85  56.82
981.7  46694.84  26428.52  56.60
982.6  46857.76  26411.90  56.37
983.6  47433.79  26748.73  56.39
984.6  47818.98  26855.91  56.16
985.5  48063.24  27210.62  56.61
986.5  48770.77  27465.50  56.32
987.5  50043.63  28009.77  55.97
988.4  50895.90  28538.69  56.07
989.4  52431.75  29078.82  55.46
990.4  53425.02  29816.81  55.81
991.3  55387.31  30812.39  55.63
992.3  55950.90  31196.86  55.76
993.2  58118.31  32073.53  55.19
994.2  59457.94  32790.42  55.15
995.2  60710.63  33610.00  55.36
996.1  61737.77  34312.34  55.58
997.1  61885.85  33744.07  54.53
998.0  61668.00  33437.76  54.22
999.0  61787.86  33772.54  54.66
1000.0  62252.49  33351.34  53.57
1000.9  62564.91  34312.33  54.84
1001.9  61626.12  33786.25  54.82
1002.8  61885.09  33005.38  53.33
1003.8  61970.58  33109.17  53.43
1004.8  62064.96  33527.25  54.02
961.5  55881.62  28134.17  50.35
965.5  54589.44  27834.93  50.99
969.5  52393.79  27109.86  51.74
973.4  50126.74  26310.53  52.49
977.4  48345.52  25654.33  53.06
981.4  47464.01  25488.87  53.70
985.3  47176.98  25577.14  54.22
989.3  47304.75  25784.68  54.51
993.3  47508.66  26001.88  54.73
997.2  47541.75  26102.93  54.91
1001.2  47520.33  26147.55  55.02
1005.2  47455.76  26150.08  55.10
1009.1  47529.68  26199.51  55.12
1013.1  47663.39  26331.44  55.24
1017.1  47785.75  26455.78  55.36
1021.0  47816.50  26500.55  55.42
1025.0  47819.30  26534.51  55.49
1029.0  47652.00  26468.52  55.55
1032.9  47495.63  26394.16  55.57
1036.9  47497.16  26415.81  55.62
1040.9  47608.97  26502.24  55.67
1044.8  47827.54  26624.68  55.67
1048.8  48004.98  26739.29  55.70
1052.7  48133.54  26830.35  55.74
1056.7  48188.20  26868.17  55.76
1060.7  48194.60  26887.22  55.79
1064.6  48198.22  26906.20  55.82
1068.6  48113.17  26860.00  55.83
1072.5  48026.55  26811.28  55.83
1076.5  47975.49  26791.38  55.84
1080.4  47966.69  26773.62  55.82
1084.4  48069.59  26815.69  55.79
1088.3  48170.15  26867.31  55.78
1092.3  48152.58  26844.81  55.75
1096.2  48142.77  26825.97  55.72
1100.2  48183.64  26828.45  55.68
1104.1  48079.94  26742.01  55.62
1108.1  48035.13  26685.28  55.55
1112.0  47943.86  26595.87  55.47
1116.0  47742.57  26438.62  55.38
1119.9  47581.47  26290.61  55.25
1123.9  47666.30  26275.20  55.12
1127.8  47639.04  26184.96  54.97
1131.8  47617.38  26075.64  54.76
1135.7  47659.94  25962.62  54.47
1139.6  47675.62  25782.59  54.08
1143.6  47638.82  25573.42  53.68
1147.5  47616.88  25372.18  53.28
1151.4  47500.80  25125.95  52.90
1155.4  47513.75  25016.64  52.65
1159.3  47522.52  24962.35  52.53
1163.2  47363.89  24831.85  52.43
1167.2  47347.50  24791.80  52.36
1171.1  47369.57  24781.58  52.32
1175.0  47314.40  24734.53  52.28
1179.0  47268.08  24701.95  52.26
1182.9  47358.68  24731.49  52.22
1186.8  47350.70  24715.62  52.20
1190.7  47139.70  24582.82  52.15
1194.7  46883.87  24424.77  52.10
1198.6  46652.76  24305.82  52.10
1202.5  46480.48  24220.60  52.11
1206.4  46340.80  24156.54  52.13
1210.3  46236.01  24114.88  52.16
1214.2  46114.66  24066.61  52.19
1218.2  45952.68  23996.44  52.22
1222.1  45800.88  23938.07  52.27
1226.0  45686.61  23897.13  52.31
1229.9  45598.02  23861.66  52.33
1233.8  45484.04  23826.91  52.39
1237.7  45416.66  23805.40  52.42
1241.6  45332.53  23767.97  52.43
1245.5  45166.97  23694.71  52.46
1249.4  45023.84  23620.57  52.46
1253.3  44894.25  23558.03  52.47
1257.2  44816.00  23525.36  52.49
1261.1  44716.86  23456.31  52.46
1265.0  44587.73  23362.37  52.40
1268.9  44400.64  23246.55  52.36
1272.8  44460.00  23257.90  52.31
1276.7  44653.74  23329.61  52.25
1280.6  44733.81  23339.01  52.17
1284.5  44649.07  23256.13  52.09
1288.4  44631.63  23192.61  51.96
1292.3  44511.50  23076.17  51.84
1296.2  44360.33  22933.30  51.70
1300.1  44197.71  22770.14  51.52
1303.9  43963.66  22561.53  51.32
1307.8  43715.49  22335.05  51.09
1311.7  43464.03  22088.27  50.82
1315.6  43214.30  21823.72  50.50
1319.5  42962.15  21538.34  50.13
1323.3  42734.84  21257.84  49.74
1327.2  42525.95  20976.54  49.33
1331.1  42285.13  20668.00  48.88
1335.0  41985.32  20322.58  48.40
1338.8  41775.29  20019.62  47.92
1342.7  41609.18  19711.75  47.37
1346.5  41242.98  19283.65  46.76
1350.4  40931.78  18876.09  46.12
1354.3  40517.39  18406.38  45.43
