/*** Spectra Vista SIG Data ***/
name= EXF.sig
comm= Averaged Ref/Tar of files: EXF4,EXF5,EXF6
data=
346.4  509.60  96.82  19.00
347.9  536.51  94.55  17.62
349.5  577.20  95.05  16.47
351.1  620.88  97.97  15.78
352.6  679.94  99.52  14.64
354.2  723.22  102.32  14.15
355.7  777.89  112.25  14.43
357.3  842.60  118.36  14.05
358.8  838.80  114.64  13.67
360.4  904.00  117.49  13.00
361.9  943.76  123.51  13.09
363.5  997.20  123.27  12.36
365.1  1040.25  125.52  12.07
366.6  1087.54  125.90  11.58
368.2  1161.70  126.47  10.89
369.7  1204.79  126.46  10.50
371.3  1287.37  128.85  10.01
372.8  1354.56  136.56  10.08
374.4  1435.13  141.29  9.85
375.9  1463.02  144.32  9.86
377.4  1512.41  142.68  9.43
379.0  1578.52  141.30  8.95
380.5  1618.77  143.62  8.87
382.1  1669.58  143.61  8.60
383.6  1726.52  143.64  8.32
385.2  1809.50  145.57  8.04
386.7  1900.67  152.89  8.04
388.3  1991.93  152.18  7.64
389.8  2077.97  161.04  7.75
391.3  2163.95  164.32  7.59
392.9  2236.17  169.37  7.57
394.4  2293.88  172.32  7.51
395.9  2364.42  177.72  7.52
397.5  2493.56  188.20  7.55
399.0  2617.23  192.82  7.37
400.6  2691.33  189.42  7.04
402.1  2739.96  183.18  6.69
403.6  2797.88  184.93  6.61
405.1  2865.39  186.76  6.52
406.7  2979.20  193.24  6.49
408.2  3089.54  196.76  6.37
409.7  3183.04  199.36  6.26
411.3  3295.62  208.39  6.32
412.8  3391.47  218.20  6.43
414.3  3507.27  222.40  6.34
415.8  3622.50  227.67  6.28
417.4  3739.34  237.99  6.36
418.9  3830.42  242.88  6.34
420.4  3913.23  244.76  6.25
421.9  3978.48  244.42  6.14
423.5  4044.22  247.36  6.12
425.0  4110.68  249.47  6.07
426.5  4198.95  251.12  5.98
428.0  4314.36  257.11  5.96
429.5  4445.73  260.70  5.86
431.1  4599.50  266.13  5.79
432.6  4769.72  273.00  5.72
434.1  4937.63  281.82  5.71
435.6  5085.18  287.93  5.66
437.1  5233.80  296.27  5.66
438.6  5364.45  301.43  5.62
440.1  5501.44  311.12  5.66
441.6  5653.06  317.60  5.62
443.1  5799.60  326.57  5.63
444.7  5941.01  336.47  5.66
446.2  6051.88  343.40  5.67
447.7  6161.82  354.84  5.76
449.2  6292.08  359.14  5.71
450.7  6396.00  360.67  5.64
452.2  6529.70  368.63  5.65
453.7  6647.26  373.12  5.61
455.2  6815.62  382.46  5.61
456.7  7013.60  391.19  5.58
458.2  7232.90  404.60  5.59
459.7  7456.75  415.80  5.58
461.2  7667.16  425.95  5.56
462.7  7858.10  437.95  5.57
464.2  8041.02  451.40  5.61
465.7  8240.35  459.23  5.57
467.2  8402.63  468.29  5.57
468.7  8584.00  478.27  5.57
470.2  8698.25  491.77  5.65
471.7  8877.75  504.45  5.68
473.2  9159.71  520.36  5.68
474.6  9386.40  527.53  5.62
476.1  9450.96  526.18  5.57
477.6  9499.75  524.87  5.53
479.1  9557.87  527.88  5.52
480.6  9632.82  530.81  5.51
482.1  9760.73  535.80  5.49
483.6  9935.74  546.39  5.50
485.1  10133.78  558.05  5.51
486.6  10366.07  572.67  5.52
488.0  10621.00  589.44  5.55
489.5  10873.80  608.64  5.60
491.0  11134.31  625.44  5.62
492.5  11404.80  645.30  5.66
494.0  11683.71  667.84  5.72
495.4  11917.95  694.43  5.83
496.9  12154.26  716.99  5.90
498.4  12387.41  747.86  6.04
499.9  12623.63  779.98  6.18
501.4  12839.71  817.71  6.37
502.8  13042.06  860.61  6.60
504.3  13226.40  903.48  6.83
505.8  13406.54  954.08  7.12
507.2  13518.16  1008.00  7.46
508.7  13603.31  1063.30  7.82
510.2  13672.60  1127.87  8.25
511.6  13715.26  1192.95  8.70
513.1  13806.21  1269.48  9.19
514.6  13898.29  1354.72  9.75
516.0  13992.63  1444.66  10.32
517.5  14151.40  1548.70  10.94
519.0  14339.95  1657.04  11.56
520.5  14520.56  1774.15  12.22
521.9  14760.83  1898.99  12.87
523.4  15031.28  2030.12  13.51
524.8  15295.25  2161.31  14.13
526.3  15594.01  2292.46  14.70
527.8  15909.50  2421.17  15.22
529.2  16189.50  2543.77  15.71
530.7  16509.28  2660.83  16.12
532.1  16791.25  2767.40  16.48
533.6  17121.20  2872.35  16.78
535.0  17454.94  2975.98  17.05
536.5  17789.22  3065.00  17.23
538.0  18136.88  3155.36  17.40
539.4  18461.69  3235.97  17.53
540.9  18864.39  3324.37  17.62
542.3  19206.33  3405.23  17.73
543.8  19460.81  3465.39  17.81
545.2  19544.37  3501.35  17.91
546.6  19566.05  3522.19  18.00
548.1  19604.97  3538.84  18.05
549.5  19640.65  3555.25  18.10
551.0  19664.79  3571.71  18.16
552.4  19724.92  3580.48  18.15
553.9  19761.60  3581.79  18.13
555.3  19812.20  3581.60  18.08
556.8  19934.49  3579.12  17.95
558.2  20047.50  3571.20  17.81
559.6  20200.16  3561.69  17.63
561.1  20397.00  3554.96  17.43
562.5  20617.77  3540.35  17.17
564.0  20901.40  3530.64  16.89
565.4  21161.13  3511.81  16.60
566.8  21482.31  3494.51  16.27
568.3  21793.28  3464.22  15.90
569.7  22118.60  3431.39  15.51
571.1  22425.71  3395.43  15.14
572.6  22741.56  3358.37  14.77
574.0  23030.70  3322.55  14.43
575.4  23309.44  3287.70  14.10
576.9  23581.06  3255.25  13.80
578.3  23822.01  3222.15  13.53
579.7  24048.22  3193.94  13.28
581.1  24227.75  3163.76  13.06
582.6  24429.78  3132.45  12.82
584.0  24600.48  3109.47  12.64
585.4  24853.74  3092.08  12.44
586.8  25196.68  3092.28  12.27
588.3  25573.86  3104.09  12.14
589.7  25896.78  3106.59  12.00
591.1  26104.75  3099.13  11.87
592.5  26211.06  3080.62  11.75
594.0  26269.26  3068.04  11.68
595.4  26286.44  3044.73  11.58
596.8  26295.56  3028.46  11.52
598.2  26315.92  3007.88  11.43
599.6  26317.98  2992.67  11.37
601.0  26398.05  2977.59  11.28
602.4  26470.93  2962.50  11.19
603.9  26597.64  2944.39  11.07
605.3  26727.57  2925.44  10.95
606.7  26857.80  2903.76  10.81
608.1  27088.39  2883.68  10.65
609.5  27333.21  2865.36  10.48
610.9  27623.29  2843.98  10.30
612.3  27891.32  2823.66  10.12
613.7  28252.28  2808.99  9.94
615.1  28513.62  2783.27  9.76
616.5  28776.05  2762.42  9.60
617.9  29165.50  2758.33  9.46
619.3  29543.24  2756.53  9.33
620.7  29990.55  2764.34  9.22
622.1  30437.05  2779.59  9.13
623.5  30934.60  2809.49  9.08
624.9  31494.75  2838.08  9.01
626.3  31867.36  2860.67  8.98
627.7  31569.69  2826.85  8.95
629.1  31287.59  2801.91  8.96
630.5  31184.65  2787.78  8.94
631.9  31222.21  2777.84  8.90
633.3  31256.33  2758.72  8.83
634.7  31400.48  2746.69  8.75
636.1  31461.82  2716.68  8.63
637.5  31554.77  2689.63  8.52
638.9  31702.82  2654.54  8.37
640.2  31825.04  2611.94  8.21
641.6  31863.78  2559.34  8.03
643.0  31847.61  2501.19  7.85
644.4  31829.55  2431.72  7.64
645.8  31751.71  2362.10  7.44
647.2  31867.94  2312.41  7.26
648.5  31926.34  2261.75  7.08
649.9  31776.23  2193.45  6.90
651.3  31648.05  2157.30  6.82
652.7  31449.15  2119.73  6.74
654.1  31244.46  2084.44  6.67
655.5  31005.95  2053.26  6.62
656.8  30780.41  2011.03  6.53
658.2  30925.42  1992.84  6.44
659.6  31264.45  1989.87  6.36
660.9  31536.04  1976.27  6.27
662.3  31822.64  1961.90  6.17
663.7  32096.40  1950.48  6.08
665.0  32332.90  1939.92  6.00
666.4  32562.99  1932.15  5.93
667.8  32863.56  1936.50  5.89
669.1  33114.69  1938.66  5.85
670.5  33405.09  1948.14  5.83
671.9  33586.56  1958.95  5.83
673.2  33844.75  1979.01  5.85
674.6  34082.18  2003.49  5.88
676.0  34372.41  2030.91  5.91
677.3  34659.68  2072.09  5.98
678.7  34979.63  2115.93  6.05
680.0  35399.92  2176.26  6.15
681.4  35845.89  2252.24  6.28
682.8  36270.33  2344.77  6.46
684.1  36705.24  2450.76  6.68
685.5  37104.21  2577.88  6.95
686.8  37507.62  2746.51  7.32
688.2  37862.83  2940.60  7.77
689.5  38000.96  3172.18  8.35
690.9  38124.79  3443.90  9.03
692.2  38229.60  3766.18  9.85
693.6  38334.37  4142.47  10.81
694.9  38335.34  4556.63  11.89
696.2  38393.33  5022.17  13.08
697.6  38453.39  5512.90  14.34
698.9  38522.88  6042.96  15.69
700.3  38613.54  6592.76  17.07
701.6  38716.02  7157.30  18.49
703.0  38828.83  7722.05  19.89
704.3  38882.19  8273.88  21.28
705.6  38895.39  8810.82  22.65
707.0  38949.12  9350.91  24.01
708.3  38885.46  9846.54  25.32
709.6  38817.35  10332.36  26.62
711.0  38702.88  10783.17  27.86
712.3  38573.15  11226.14  29.10
713.6  38531.64  11667.68  30.28
714.9  38462.14  12090.56  31.43
716.3  38461.08  12517.63  32.55
717.6  38479.84  12942.00  33.63
718.9  38424.85  13313.01  34.65
720.2  38251.08  13615.24  35.59
721.6  38113.53  13916.26  36.51
722.9  37945.16  14193.46  37.41
724.2  37714.27  14436.25  38.28
725.5  37534.96  14681.92  39.12
726.8  37360.68  14888.75  39.85
728.1  37271.09  15109.11  40.54
729.5  37167.13  15307.22  41.18
730.8  37093.13  15509.58  41.81
732.1  36996.92  15673.56  42.36
733.4  36936.39  15842.13  42.89
734.7  36864.47  15979.77  43.35
736.0  36851.62  16143.68  43.81
737.3  36774.45  16271.25  44.25
738.6  36845.76  16443.36  44.63
739.9  37000.34  16648.98  45.00
741.2  37119.81  16804.97  45.27
742.5  37372.03  17019.17  45.54
743.8  37768.50  17304.60  45.82
745.1  38387.22  17694.38  46.09
746.4  39127.73  18117.13  46.30
747.7  39918.22  18533.74  46.43
749.0  40672.12  18925.07  46.53
750.3  41122.66  19133.54  46.53
751.6  41047.35  19122.84  46.59
752.9  40630.59  18972.89  46.70
754.2  40176.47  18804.57  46.80
755.4  39652.21  18634.67  47.00
756.7  39478.17  18605.33  47.13
758.0  39495.60  18660.05  47.25
759.3  39730.28  18829.80  47.39
760.6  40061.56  19044.87  47.54
761.9  40384.10  19241.42  47.65
763.1  40567.56  19360.32  47.72
764.4  40796.65  19494.04  47.78
765.7  40953.25  19582.55  47.82
767.0  41079.80  19661.76  47.86
768.2  41207.04  19737.99  47.90
769.5  41279.98  19786.64  47.93
770.8  41469.61  19882.75  47.95
772.0  41501.32  19921.96  48.00
773.3  41583.65  19989.88  48.07
774.6  41708.58  20043.03  48.05
775.8  41815.15  20088.32  48.04
777.1  41846.51  20093.42  48.02
778.4  41799.94  20064.08  48.00
779.6  41775.90  20070.77  48.04
780.9  41704.00  20051.73  48.08
782.1  41523.21  20006.84  48.18
783.4  41558.40  20010.99  48.15
784.6  41567.36  20027.55  48.18
785.9  41861.56  20184.77  48.22
787.1  42409.87  20473.55  48.28
788.4  42854.47  20678.09  48.25
789.6  42849.18  20586.17  48.04
790.9  42483.96  20311.85  47.81
792.1  42011.92  20083.15  47.80
793.4  41570.15  19892.71  47.85
794.6  41283.15  19745.89  47.83
795.8  41024.39  19623.05  47.83
797.1  40758.68  19505.36  47.86
798.3  40551.64  19421.71  47.89
799.5  40444.72  19370.77  47.89
800.8  40323.21  19320.14  47.91
802.0  40187.32  19254.60  47.91
803.2  40033.64  19182.28  47.92
804.5  39942.72  19138.32  47.91
805.7  39829.66  19081.33  47.91
806.9  39715.93  19014.96  47.88
808.1  39632.97  18983.42  47.90
809.4  39553.39  18965.84  47.95
810.6  39489.45  18929.82  47.94
811.8  39474.39  18932.28  47.96
813.0  39504.71  18964.78  48.01
814.2  39525.61  18997.99  48.07
815.4  39644.33  19053.68  48.06
816.6  39709.73  19078.86  48.05
817.9  39791.57  19083.13  47.96
819.1  39719.87  19039.48  47.93
820.3  39621.11  18986.89  47.92
821.5  39546.25  18951.18  47.92
822.7  39480.04  18931.12  47.95
823.9  39499.25  18945.05  47.96
825.1  39541.96  18954.87  47.94
826.3  39583.35  18980.38  47.95
827.5  39640.56  19013.40  47.96
828.7  39708.48  19047.12  47.97
829.9  39767.03  19085.61  47.99
831.0  39870.82  19143.38  48.01
832.2  39993.87  19196.01  48.00
833.4  40076.64  19248.01  48.03
834.6  40148.44  19305.31  48.08
835.8  40238.10  19356.75  48.11
837.0  40328.28  19428.83  48.18
838.1  40500.72  19509.59  48.17
839.3  40601.19  19561.17  48.18
840.5  40716.87  19622.39  48.19
841.7  40854.11  19715.60  48.26
842.9  40980.73  19816.23  48.35
844.0  41100.82  19887.30  48.39
845.2  41245.09  19970.09  48.42
846.4  41368.25  20048.02  48.46
847.5  41564.18  20160.43  48.50
848.7  41743.64  20257.83  48.53
849.9  41936.76  20339.11  48.50
851.0  42020.98  20341.49  48.41
852.2  42107.61  20364.09  48.36
853.3  42066.96  20350.29  48.38
854.5  42098.11  20347.52  48.33
855.6  42095.43  20354.46  48.35
856.8  42111.00  20389.20  48.42
857.9  42111.88  20393.42  48.43
859.1  42240.60  20446.36  48.40
860.2  42245.56  20447.26  48.40
861.4  42273.83  20474.06  48.43
862.5  42309.54  20495.25  48.44
863.7  42384.63  20524.58  48.42
864.8  42387.10  20542.29  48.46
865.9  42333.82  20527.25  48.49
867.1  42372.33  20541.59  48.48
868.2  42368.54  20544.64  48.49
869.3  42393.50  20542.28  48.46
870.5  42342.80  20507.17  48.43
871.6  42318.48  20519.86  48.49
872.7  42385.23  20564.17  48.52
873.9  42404.90  20568.11  48.50
875.0  42391.36  20560.61  48.50
876.1  42363.75  20545.65  48.50
877.2  42397.32  20567.62  48.51
878.3  42381.77  20560.85  48.51
879.4  42397.70  20580.57  48.54
880.5  42451.56  20597.88  48.52
881.7  42410.55  20553.22  48.46
882.8  42454.72  20600.76  48.52
883.9  42482.63  20560.86  48.40
885.0  42446.04  20535.70  48.38
886.1  42420.10  20514.83  48.36
887.2  42295.80  20410.34  48.26
888.3  42201.80  20352.43  48.23
889.4  42117.30  20288.76  48.17
890.5  42026.34  20240.84  48.16
891.6  41981.69  20199.57  48.12
892.7  41962.31  20193.42  48.12
893.8  41981.79  20229.87  48.19
894.9  41952.35  20226.60  48.21
896.0  41968.71  20213.75  48.16
897.0  41952.48  20205.02  48.16
898.1  41951.64  20213.94  48.18
899.2  41983.30  20204.29  48.12
900.3  41907.57  20160.96  48.11
901.4  41820.39  20148.45  48.18
902.4  41828.99  20159.10  48.19
903.5  41775.96  20117.24  48.16
904.6  41798.96  20115.31  48.12
905.7  41805.42  20113.04  48.11
906.7  41815.90  20115.31  48.10
907.8  41839.20  20131.24  48.12
908.9  41746.38  20094.49  48.13
909.9  41734.69  20073.00  48.10
911.0  41681.88  20058.95  48.12
912.1  41602.05  20013.57  48.11
913.1  41535.52  19969.45  48.08
914.2  41457.24  19932.44  48.08
915.2  41368.59  19933.38  48.18
916.3  41436.15  19929.15  48.10
917.3  41410.15  19936.27  48.14
918.4  41310.50  19890.09  48.15
919.4  41328.17  19868.54  48.08
920.5  41309.67  19861.83  48.08
921.5  41323.66  19873.32  48.09
922.6  41255.80  19835.50  48.08
923.6  41303.54  19852.52  48.06
924.7  41344.50  19861.70  48.04
925.7  41333.16  19850.63  48.03
926.7  41356.90  19849.12  47.99
927.8  41415.30  19860.58  47.95
928.8  41570.85  19912.23  47.90
929.9  41658.93  19948.05  47.88
930.9  41879.39  20042.28  47.86
931.9  42070.56  20141.12  47.87
932.9  42412.10  20260.71  47.77
934.0  42452.50  20288.46  47.79
935.0  42440.57  20299.68  47.83
936.0  42488.02  20288.12  47.75
937.0  42429.47  20281.77  47.80
938.1  42380.86  20292.96  47.88
939.1  42337.65  20267.92  47.87
940.1  42429.30  20294.84  47.83
941.1  42615.86  20391.80  47.85
942.1  42903.92  20514.23  47.81
943.1  43057.09  20599.76  47.84
944.1  43342.63  20704.86  47.77
945.2  43356.60  20724.37  47.80
946.2  43482.48  20740.37  47.70
947.2  43549.00  20780.29  47.72
948.2  43743.16  20853.13  47.67
949.2  43840.88  20888.19  47.65
950.2  43906.25  20915.77  47.64
951.2  44010.96  20946.86  47.59
952.2  44061.91  20960.28  47.57
953.2  44318.14  21039.66  47.47
954.2  44380.80  21095.96  47.53
955.2  44428.35  21094.76  47.48
956.2  44460.20  21082.07  47.42
957.2  44542.35  21133.40  47.45
958.2  44649.94  21176.92  47.43
959.2  44705.25  21214.32  47.45
960.1  44813.66  21230.75  47.38
961.1  44928.76  21282.41  47.37
962.1  44958.75  21277.63  47.33
963.1  44986.01  21327.92  47.41
964.1  45106.16  21394.46  47.43
965.1  45270.70  21465.22  47.42
966.1  45207.41  21454.83  47.46
967.0  45355.66  21511.23  47.43
968.0  45441.48  21545.55  47.41
969.0  45453.60  21556.93  47.43
970.0  45557.64  21622.22  47.46
971.0  45615.57  21667.01  47.50
971.9  45699.86  21665.12  47.41
972.9  45781.93  21725.52  47.45
973.9  45829.88  21748.44  47.45
974.9  45973.78  21757.87  47.33
975.8  45979.65  21793.98  47.40
976.8  46106.16  21774.19  47.23
977.8  46097.80  21775.66  47.24
978.8  46103.70  21900.96  47.50
979.7  46387.55  21975.11  47.37
980.7  46405.76  22032.46  47.48
981.7  46694.84  22109.76  47.35
982.6  46857.76  22263.84  47.51
983.6  47433.79  22446.63  47.32
984.6  47818.98  22754.27  47.58
985.5  48063.24  22970.42  47.79
986.5  48770.77  23265.58  47.70
987.5  50043.63  23805.86  47.57
988.4  50895.90  24007.50  47.17
989.4  52431.75  24534.73  46.79
990.4  53425.02  24999.80  46.79
991.3  55387.31  25415.68  45.89
992.3  55950.90  25510.48  45.59
993.2  58118.31  26329.01  45.30
994.2  59457.94  26549.45  44.65
995.2  60710.63  26727.60  44.02
996.1  61737.77  27119.79  43.93
997.1  61885.85  26686.92  43.12
998.0  61668.00  26585.76  43.11
999.0  61787.86  26714.52  43.24
1000.0  62252.49  26651.07  42.81
1000.9  62564.91  26573.69  42.47
1001.9  61626.12  26191.10  42.50
1002.8  61885.09  26259.35  42.43
1003.8  61970.58  26504.79  42.77
1004.8  62064.96  26408.03  42.55
961.5  55881.62  22977.85  41.12
965.5  54589.44  22859.33  41.88
969.5  52393.79  22405.38  42.76
973.4  50126.74  21892.88  43.68
977.4  48345.52  21362.20  44.19
981.4  47464.01  21165.26  44.59
985.3  47176.98  21171.51  44.88
989.3  47304.75  21224.59  44.87
993.3  47508.66  21272.78  44.78
997.2  47541.75  21233.80  44.66
1001.2  47520.33  21184.45  44.58
1005.2  47455.76  21167.02  44.60
1009.1  47529.68  21225.14  44.66
1013.1  47663.39  21347.97  44.79
1017.1  47785.75  21437.88  44.86
1021.0  47816.50  21454.25  44.87
1025.0  47819.30  21455.27  44.87
1029.0  47652.00  21387.45  44.88
1032.9  47495.63  21332.44  44.91
1036.9  47497.16  21341.35  44.93
1040.9  47608.97  21421.90  45.00
1044.8  47827.54  21539.12  45.03
1048.8  48004.98  21640.63  45.08
1052.7  48133.54  21722.79  45.13
1056.7  48188.20  21742.07  45.12
1060.7  48194.60  21761.83  45.15
1064.6  48198.22  21777.32  45.18
1068.6  48113.17  21738.61  45.18
1072.5  48026.55  21710.84  45.21
1076.5  47975.49  21690.00  45.21
1080.4  47966.69  21674.70  45.19
1084.4  48069.59  21705.78  45.15
1088.3  48170.15  21743.18  45.14
1092.3  48152.58  21703.57  45.07
1096.2  48142.77  21674.65  45.02
1100.2  48183.64  21688.91  45.01
1104.1  48079.94  21628.60  44.98
1108.1  48035.13  21582.93  44.93
1112.0  47943.86  21500.18  44.84
1116.0  47742.57  21370.03  44.76
1119.9  47581.47  21244.03  44.65
1123.9  47666.30  21212.07  44.50
1127.8  47639.04  21121.28  44.34
1131.8  47617.38  21000.72  44.10
1135.7  47659.94  20875.90  43.80
1139.6  47675.62  20687.49  43.39
1143.6  47638.82  20475.31  42.98
1147.5  47616.88  20282.51  42.60
1151.4  47500.80  20061.67  42.23
1155.4  47513.75  19971.47  42.03
1159.3  47522.52  19927.70  41.93
1163.2  47363.89  19826.99  41.86
1167.2  47347.50  19801.58  41.82
1171.1  47369.57  19789.03  41.78
1175.0  47314.40  19744.48  41.73
1179.0  47268.08  19712.97  41.70
1182.9  47358.68  19735.98  41.67
1186.8  47350.70  19721.62  41.65
1190.7  47139.70  19610.80  41.60
1194.7  46883.87  19486.27  41.56
1198.6  46652.76  19390.14  41.56
1202.5  46480.48  19330.89  41.59
1206.4  46340.80  19296.35  41.64
1210.3  46236.01  19274.39  41.69
1214.2  46114.66  19249.24  41.74
1218.2  45952.68  19200.91  41.78
1222.1  45800.88  19163.12  41.84
1226.0  45686.61  19143.08  41.90
1229.9  45598.02  19120.28  41.93
1233.8  45484.04  19090.75  41.97
1237.7  45416.66  19071.48  41.99
1241.6  45332.53  19042.02  42.01
1245.5  45166.97  18985.98  42.04
1249.4  45023.84  18935.39  42.06
1253.3  44894.25  18882.84  42.06
1257.2  44816.00  18845.99  42.05
1261.1  44716.86  18800.43  42.04
1265.0  44587.73  18742.62  42.04
1268.9  44400.64  18652.33  42.01
1272.8  44460.00  18654.20  41.96
1276.7  44653.74  18708.66  41.90
1280.6  44733.81  18716.68  41.84
1284.5  44649.07  18642.13  41.75
1288.4  44631.63  18584.69  41.64
1292.3  44511.50  18489.17  41.54
1296.2  44360.33  18367.45  41.41
1300.1  44197.71  18215.76  41.21
1303.9  43963.66  18018.21  40.98
1307.8  43715.49  17809.34  40.74
1311.7  43464.03  17588.57  40.47
1315.6  43214.30  17358.82  40.17
1319.5  42962.15  17109.19  39.82
1323.3  42734.84  16852.95  39.44
1327.2  42525.95  16592.55  39.02
1331.1  42285.13  16306.94  38.56
1335.0  41985.32  15991.02  38.09
1338.8  41775.29  15705.15  37.59
1342.7  41609.18  15417.77  37.05
1346.5  41242.98  15040.97  36.47
1350.4  40931.78  14664.03  35.83
1354.3  40517.39  14239.72  35.14
1358.1  40047.65  13825.70  34.52
1362.0  39764.09  13529.03  34.02
1365.8  39670.89  13318.12  33.57
1369.7  39786.92  13139.76  33.03
1373.5  39741.56  12800.09  32.21
