/*** Spectra Vista SIG Data ***/
name= RS.sig
comm= SIG file reprocesed for matching/overlap;Averaged Ref/Tar of files: RS1,RS2
data=
346.4  468.20  84.72  18.09
347.9  473.76  87.23  18.41
349.5  521.04  86.74  16.65
351.1  558.48  82.37  14.75
352.6  585.06  82.23  14.05
354.2  625.05  93.60  14.97
355.7  673.50  96.31  14.30
357.3  724.71  96.40  13.30
358.8  751.43  96.46  12.84
360.4  798.47  105.53  13.22
361.9  821.87  96.82  11.78
363.5  851.78  103.88  12.20
365.1  887.68  95.70  10.78
366.6  918.37  102.89  11.20
368.2  973.68  106.10  10.90
369.7  1008.89  93.38  9.26
371.3  1073.36  92.85  8.65
372.8  1148.72  95.62  8.32
374.4  1191.49  100.13  8.40
375.9  1247.87  109.90  8.81
377.4  1278.23  99.53  7.79
379.0  1330.29  106.30  7.99
380.5  1360.26  95.41  7.01
382.1  1412.49  101.65  7.20
383.6  1460.03  104.90  7.18
385.2  1529.00  96.80  6.33
386.7  1608.26  99.10  6.16
388.3  1679.42  100.55  5.99
389.8  1759.55  104.86  5.96
391.3  1843.67  103.60  5.62
392.9  1897.62  107.55  5.67
394.4  1955.58  116.33  5.95
395.9  2019.02  126.23  6.25
397.5  2131.80  127.91  6.00
399.0  2240.25  126.69  5.66
400.6  2303.62  127.35  5.53
402.1  2342.64  123.33  5.26
403.6  2375.92  116.52  4.90
405.1  2451.81  115.17  4.70
406.7  2542.40  117.83  4.63
408.2  2650.73  118.95  4.49
409.7  2746.24  123.20  4.49
411.3  2843.51  127.60  4.49
412.8  2936.43  130.83  4.46
414.3  3034.90  134.62  4.44
415.8  3152.50  136.50  4.33
417.4  3253.58  145.73  4.48
418.9  3339.60  144.21  4.32
420.4  3424.70  146.56  4.28
421.9  3487.22  144.72  4.15
423.5  3546.87  144.77  4.08
425.0  3613.98  143.84  3.98
426.5  3695.85  143.62  3.89
428.0  3801.23  140.80  3.70
429.5  3926.30  142.99  3.64
431.1  4071.24  146.68  3.60
432.6  4225.66  151.88  3.59
434.1  4373.60  152.08  3.48
435.6  4514.36  159.06  3.52
437.1  4642.95  163.41  3.52
438.6  4769.06  168.99  3.54
440.1  4906.69  169.71  3.46
441.6  5042.30  168.21  3.34
443.1  5179.95  177.39  3.42
444.7  5318.34  183.31  3.45
446.2  5433.01  189.03  3.48
447.7  5551.25  190.73  3.44
449.2  5676.48  193.97  3.42
450.7  5788.64  194.27  3.36
452.2  5916.62  196.50  3.32
453.7  6028.91  195.20  3.24
455.2  6201.73  197.81  3.19
456.7  6390.56  202.75  3.17
458.2  6607.30  211.10  3.19
459.7  6823.25  219.45  3.22
461.2  7031.76  218.86  3.11
462.7  7219.07  228.41  3.16
464.2  7396.86  231.31  3.13
465.7  7583.22  240.70  3.17
467.2  7742.35  245.63  3.17
468.7  7912.00  250.00  3.16
470.2  8015.91  255.29  3.18
471.7  8177.13  264.10  3.23
473.2  8446.52  265.40  3.14
474.6  8688.33  266.11  3.06
476.1  8747.12  259.49  2.97
477.6  8779.39  262.70  2.99
479.1  8829.54  263.69  2.99
480.6  8916.06  257.39  2.89
482.1  9046.91  260.50  2.88
483.6  9204.08  264.84  2.88
485.1  9394.00  265.38  2.82
486.6  9626.34  271.51  2.82
488.0  9867.00  273.65  2.77
489.5  10130.90  284.89  2.81
491.0  10387.73  292.83  2.82
492.5  10649.88  291.28  2.74
494.0  10928.34  303.46  2.78
495.4  11158.95  309.54  2.77
496.9  11406.10  320.31  2.81
498.4  11649.48  327.67  2.81
499.9  11878.23  333.88  2.81
501.4  12101.58  343.42  2.84
502.8  12308.24  350.25  2.85
504.3  12497.40  356.04  2.85
505.8  12681.02  365.51  2.88
507.2  12808.72  370.61  2.89
508.7  12896.48  374.49  2.90
510.2  12964.78  376.88  2.91
511.6  13008.39  382.66  2.94
513.1  13093.74  385.97  2.95
514.6  13195.49  384.98  2.92
516.0  13281.41  382.17  2.88
517.5  13429.99  390.98  2.91
519.0  13603.01  396.07  2.91
520.5  13772.72  399.51  2.90
521.9  13993.28  408.29  2.92
523.4  14243.35  411.83  2.89
524.8  14493.24  419.39  2.89
526.3  14778.04  427.36  2.89
527.8  15074.01  442.83  2.94
529.2  15339.71  450.54  2.94
530.7  15629.94  458.83  2.94
532.1  15903.48  470.49  2.96
533.6  16214.37  480.36  2.96
535.0  16534.98  489.61  2.96
536.5  16856.03  502.32  2.98
538.0  17178.24  519.25  3.02
539.4  17501.02  534.98  3.06
540.9  17879.62  549.32  3.07
542.3  18237.67  564.51  3.10
543.8  18504.51  577.01  3.12
545.2  18600.74  584.31  3.14
546.6  18637.00  589.43  3.16
548.1  18690.38  597.71  3.20
549.5  18745.60  605.20  3.23
551.0  18790.92  617.07  3.28
552.4  18868.34  627.67  3.33
553.9  18922.09  637.60  3.37
555.3  18999.63  655.32  3.45
556.8  19143.87  666.95  3.48
558.2  19276.31  686.14  3.56
559.6  19441.66  707.27  3.64
561.1  19660.88  728.98  3.71
562.5  19883.82  757.99  3.81
564.0  20177.05  786.16  3.90
565.4  20444.07  823.05  4.03
566.8  20774.24  863.50  4.16
568.3  21077.79  907.02  4.30
569.7  21403.31  951.40  4.45
571.1  21706.83  1003.55  4.62
572.6  22010.94  1057.54  4.80
574.0  22299.75  1111.77  4.99
575.4  22570.31  1171.81  5.19
576.9  22820.49  1231.46  5.40
578.3  23040.88  1294.16  5.62
579.7  23243.15  1370.48  5.90
581.1  23410.31  1437.78  6.14
582.6  23592.46  1515.26  6.42
584.0  23735.52  1590.00  6.70
585.4  23971.18  1677.32  7.00
586.8  24286.87  1778.73  7.32
588.3  24642.54  1876.22  7.61
589.7  24935.04  1982.92  7.95
591.1  25126.37  2077.21  8.27
592.5  25213.30  2167.03  8.59
594.0  25248.06  2250.20  8.91
595.4  25246.58  2336.96  9.26
596.8  25248.80  2426.43  9.61
598.2  25256.70  2512.59  9.95
599.6  25254.00  2604.48  10.31
601.0  25321.45  2699.01  10.66
602.4  25392.58  2797.79  11.02
603.9  25508.50  2898.11  11.36
605.3  25652.08  2996.15  11.68
606.7  25770.60  3097.44  12.02
608.1  26003.60  3204.27  12.32
609.5  26249.20  3312.66  12.62
610.9  26543.12  3427.93  12.91
612.3  26820.62  3539.46  13.20
613.7  27191.20  3656.55  13.45
615.1  27470.34  3764.23  13.70
616.5  27748.85  3869.34  13.94
617.9  28163.94  3999.52  14.20
619.3  28559.37  4137.37  14.49
620.7  29021.55  4291.06  14.79
622.1  29524.34  4367.06  14.79
623.5  30070.32  4412.36  14.67
624.9  30686.25  4473.58  14.58
626.3  31117.56  4541.58  14.59
627.7  30854.43  4559.98  14.78
629.1  30617.27  4624.41  15.10
630.5  30534.25  4725.97  15.48
631.9  30583.88  4842.19  15.83
633.3  30636.73  4947.57  16.15
634.7  30802.72  5062.30  16.43
636.1  30887.16  5123.39  16.59
637.5  30991.21  5171.81  16.69
638.9  31137.59  5211.92  16.74
640.2  31275.86  5246.79  16.78
641.6  31334.94  5263.60  16.80
643.0  31307.82  5251.12  16.77
644.4  31297.86  5236.91  16.73
645.8  31223.60  5203.05  16.66
647.2  31327.01  5193.92  16.58
648.5  31378.61  5193.84  16.55
649.9  31215.99  5169.37  16.56
651.3  31061.55  5170.89  16.65
652.7  30880.50  5170.38  16.74
654.1  30705.72  4995.77  16.27
655.5  30448.41  4781.69  15.70
656.8  30219.54  4587.89  15.18
658.2  30347.48  4451.26  14.67
659.6  30667.01  4350.21  14.19
660.9  30915.41  4248.62  13.74
662.3  31175.28  4139.30  13.28
663.7  31418.10  4013.94  12.78
665.0  31622.76  3897.19  12.32
666.4  31821.65  3791.34  11.91
667.8  32088.83  3707.64  11.55
669.1  32304.87  3629.47  11.24
670.5  32567.66  3571.11  10.97
671.9  32723.64  3526.35  10.78
673.2  32957.22  3512.49  10.66
674.6  33165.65  3516.93  10.60
676.0  33416.99  3550.20  10.62
677.3  33670.84  3611.78  10.73
678.7  33959.63  3708.98  10.92
680.0  34360.72  3866.69  11.25
681.4  34770.40  4089.96  11.76
682.8  35166.95  4393.48  12.49
684.1  35575.02  4792.32  13.47
685.5  35948.61  5288.86  14.71
686.8  36307.14  5876.45  16.19
688.2  36654.12  6546.04  17.86
689.5  36792.82  7269.60  19.76
690.9  36894.22  8039.89  21.79
692.2  37000.50  8835.75  23.88
693.6  37086.31  9656.61  26.04
694.9  37102.94  10434.84  28.12
696.2  37172.03  11187.32  30.10
697.6  37238.58  11905.17  31.97
698.9  37321.68  12607.06  33.78
700.3  37412.04  13268.30  35.47
701.6  37521.51  13883.83  37.00
703.0  37648.39  14456.02  38.40
704.3  37727.46  14945.68  39.61
705.6  37779.39  15399.13  40.76
707.0  37853.11  15829.28  41.82
708.3  37804.36  16164.16  42.76
709.6  37779.31  16472.07  43.60
711.0  37700.05  16721.54  44.35
712.3  37603.29  16955.41  45.09
713.6  37599.66  17192.54  45.73
714.9  37564.50  17407.06  46.34
716.3  37606.65  17631.63  46.88
717.6  37655.10  17848.70  47.40
718.9  37643.31  17994.56  47.80
720.2  37519.65  18057.59  48.13
721.6  37437.79  18123.59  48.41
722.9  37295.06  18196.30  48.79
724.2  37099.21  18221.67  49.12
725.5  36957.59  18269.10  49.43
726.8  36833.83  18278.69  49.62
728.1  36764.75  18300.69  49.78
729.5  36694.32  18317.58  49.92
730.8  36660.60  18346.73  50.04
732.1  36590.42  18351.58  50.15
733.4  36549.03  18371.09  50.26
734.7  36509.02  18367.03  50.31
736.0  36510.50  18398.63  50.39
737.3  36452.29  18424.50  50.54
738.6  36538.42  18494.77  50.62
739.9  36706.85  18642.87  50.79
741.2  36841.35  18729.99  50.84
742.5  37078.82  18895.73  50.96
743.8  37494.19  19161.46  51.11
745.1  38118.44  19529.74  51.23
746.4  38876.11  19921.54  51.24
747.7  39639.96  20300.73  51.21
749.0  40400.48  20673.51  51.17
750.3  40850.46  20836.00  51.01
751.6  40764.46  20783.87  50.99
752.9  40356.61  20606.87  51.06
754.2  39863.99  20414.71  51.21
755.4  39350.05  20189.96  51.31
756.7  39155.03  20145.32  51.45
758.0  39142.09  20193.96  51.59
759.3  39351.46  20354.86  51.73
760.6  39645.76  20586.10  51.93
761.9  39928.94  20788.12  52.06
763.1  40078.15  20891.92  52.13
764.4  40287.45  21011.60  52.15
765.7  40433.25  21103.55  52.19
767.0  40515.07  21170.35  52.25
768.2  40595.52  21241.92  52.33
769.5  40644.33  21287.61  52.38
770.8  40787.04  21388.12  52.44
772.0  40799.41  21401.17  52.45
773.3  40833.29  21466.79  52.57
774.6  40907.98  21516.44  52.60
775.8  40955.53  21545.95  52.61
777.1  40964.33  21551.81  52.61
778.4  40867.87  21518.00  52.65
779.6  40816.98  21503.39  52.68
780.9  40688.00  21488.00  52.81
782.1  40484.72  21414.02  52.89
783.4  40464.32  21414.85  52.92
784.6  40463.12  21435.10  52.97
785.9  40670.74  21625.65  53.17
787.1  41171.80  21914.36  53.23
788.4  41528.97  22051.55  53.10
789.6  41482.13  21907.82  52.81
790.9  41134.16  21633.53  52.59
792.1  40655.28  21413.44  52.67
793.4  40180.32  21177.10  52.71
794.6  39846.60  21003.78  52.71
795.8  39587.54  20873.26  52.73
797.1  39290.10  20756.78  52.83
798.3  39054.26  20675.58  52.94
799.5  38943.25  20615.37  52.94
800.8  38778.22  20546.50  52.98
802.0  38618.88  20466.56  53.00
803.2  38465.20  20371.64  52.96
804.5  38332.71  20319.59  53.01
805.7  38219.65  20239.09  52.95
806.9  38073.35  20167.02  52.97
808.1  37984.05  20141.29  53.03
809.4  37906.28  20122.00  53.08
810.6  37824.15  20084.61  53.10
811.8  37796.29  20097.05  53.17
813.0  37827.58  20123.72  53.20
814.2  37840.50  20152.43  53.26
815.4  37955.24  20192.92  53.20
816.6  38027.91  20217.76  53.17
817.9  38102.35  20209.91  53.04
819.1  38072.96  20157.61  52.94
820.3  37949.69  20072.07  52.89
821.5  37894.61  20024.36  52.84
822.7  37866.54  19997.26  52.81
823.9  37906.28  19982.62  52.72
825.1  37943.15  19958.19  52.60
826.3  38020.73  19967.02  52.52
827.5  38108.05  19960.80  52.38
828.7  38176.32  19949.09  52.26
829.9  38262.68  19948.91  52.14
831.0  38386.63  19972.63  52.03
832.2  38533.16  20007.11  51.92
833.4  38634.36  20044.83  51.88
834.6  38746.88  20086.88  51.84
835.8  38872.58  20135.12  51.80
837.0  39026.76  20227.55  51.83
838.1  39200.00  20313.47  51.82
839.3  39334.99  20373.16  51.79
840.5  39499.16  20452.60  51.78
841.7  39675.29  20586.40  51.89
842.9  39834.34  20690.73  51.94
844.0  40002.80  20784.96  51.96
845.2  40188.33  20879.64  51.95
846.4  40315.24  20958.12  51.99
847.5  40575.08  21077.72  51.95
848.7  40794.29  21201.57  51.97
849.9  41043.27  21269.65  51.82
851.0  41176.72  21287.06  51.70
852.2  41283.01  21298.24  51.59
853.3  41336.03  21290.79  51.51
854.5  41385.60  21302.33  51.47
855.6  41408.01  21305.20  51.45
856.8  41491.09  21355.12  51.47
857.9  41535.42  21377.90  51.47
859.1  41657.80  21447.04  51.48
860.2  41711.76  21446.20  51.42
861.4  41789.90  21482.68  51.41
862.5  41857.52  21521.56  51.42
863.7  41978.22  21565.95  51.37
864.8  42001.40  21583.24  51.39
865.9  42003.19  21582.56  51.38
867.1  42077.89  21575.11  51.27
868.2  42118.25  21586.13  51.25
869.3  42153.63  21582.66  51.20
870.5  42092.46  21527.60  51.14
871.6  42122.53  21550.43  51.16
872.7  42223.14  21586.78  51.13
873.9  42262.83  21587.54  51.08
875.0  42247.20  21528.78  50.96
876.1  42225.11  21528.49  50.99
877.2  42279.84  21515.88  50.89
878.3  42302.12  21467.27  50.75
879.4  42284.06  21451.31  50.73
880.5  42343.92  21445.20  50.65
881.7  42326.05  21397.09  50.55
882.8  42351.34  21351.42  50.41
883.9  42430.09  21326.27  50.26
885.0  42357.32  21254.96  50.18
886.1  42357.47  21178.73  50.00
887.2  42241.92  21056.31  49.85
888.3  42147.85  20957.92  49.72
889.4  42045.32  20832.82  49.55
890.5  41945.29  20740.32  49.45
891.6  41864.40  20699.42  49.44
892.7  41844.69  20668.11  49.39
893.8  41881.85  20664.74  49.34
894.9  41879.31  20641.11  49.29
896.0  41812.69  20561.27  49.17
897.0  41850.92  20509.08  49.01
898.1  41821.61  20508.66  49.04
899.2  41852.54  20478.89  48.93
900.3  41747.94  20400.72  48.87
901.4  41622.41  20291.75  48.75
902.4  41658.53  20279.06  48.68
903.5  41604.82  20222.45  48.61
904.6  41550.72  20194.87  48.60
905.7  41565.54  20143.75  48.46
906.7  41536.49  20090.90  48.37
907.8  41558.34  20075.07  48.31
908.9  41493.73  19967.52  48.12
909.9  41451.58  19907.70  48.03
911.0  41358.23  19846.46  47.99
912.1  41297.17  19762.45  47.85
913.1  41189.72  19669.11  47.75
914.2  41099.85  19569.09  47.61
915.2  41068.89  19504.48  47.49
916.3  41034.15  19454.79  47.41
917.3  40975.74  19366.49  47.26
918.4  40862.80  19245.00  47.10
919.4  40836.29  19140.28  46.87
920.5  40782.84  19069.18  46.76
921.5  40833.45  18986.78  46.50
922.6  40729.18  18899.52  46.40
923.6  40739.49  18811.69  46.18
924.7  40774.75  18730.80  45.94
925.7  40746.72  18637.94  45.74
926.7  40808.40  18532.72  45.41
927.8  40839.01  18421.34  45.11
928.8  40966.59  18373.98  44.85
929.9  41048.46  18309.58  44.60
930.9  41217.18  18258.87  44.30
931.9  41378.61  18251.34  44.11
932.9  41679.25  18260.70  43.81
934.0  41702.58  18176.19  43.59
935.0  41757.18  18043.72  43.21
936.0  41670.71  17940.44  43.05
937.0  41632.50  17802.06  42.76
938.1  41580.55  17707.27  42.59
939.1  41508.45  17584.01  42.36
940.1  41591.64  17454.89  41.97
941.1  41779.29  17444.95  41.76
942.1  41991.60  17394.02  41.42
943.1  42156.63  17352.20  41.16
944.1  42391.18  17339.63  40.90
945.2  42445.20  17228.06  40.59
946.2  42493.04  17108.04  40.26
947.2  42572.63  16988.93  39.91
948.2  42750.54  16907.13  39.55
949.2  42846.38  16804.29  39.22
950.2  42880.60  16668.92  38.87
951.2  42968.52  16539.10  38.49
952.2  43001.40  16392.83  38.12
953.2  43164.71  16319.49  37.81
954.2  43310.48  16193.57  37.39
955.2  43368.34  16072.25  37.06
956.2  43301.73  15943.06  36.82
957.2  43392.87  15869.21  36.57
958.2  43492.10  15798.71  36.33
959.2  43506.45  15757.56  36.22
960.1  43588.22  15675.42  35.96
961.1  43692.83  15687.64  35.90
962.1  43658.44  15603.75  35.74
963.1  43782.00  15564.51  35.55
964.1  43817.42  15554.62  35.50
965.1  43908.74  15618.40  35.57
966.1  44007.38  15584.56  35.41
967.0  44141.86  15577.10  35.29
968.0  44131.86  15565.69  35.27
969.0  44255.20  15523.56  35.08
970.0  44255.36  15539.04  35.11
971.0  44316.83  15575.83  35.15
971.9  44400.90  15526.15  34.97
972.9  44577.14  15509.80  34.79
973.9  44494.78  15528.24  34.90
974.9  44573.29  15486.19  34.74
975.8  44702.44  15468.47  34.60
976.8  44666.28  15448.71  34.59
977.8  44950.93  15419.03  34.30
978.8  44877.90  15383.79  34.28
979.7  45104.10  15445.41  34.24
981.4  47578.80  15859.60  33.33
985.3  47203.20  15819.63  33.51
989.3  47137.31  15842.12  33.61
993.3  47133.16  15926.02  33.79
997.2  47029.21  15983.93  33.99
1001.2  46955.35  16098.49  34.28
1005.2  46914.32  16283.00  34.71
1009.1  47038.13  16564.81  35.22
1013.1  47236.75  16885.29  35.75
1017.1  47375.30  17181.13  36.27
1021.0  47429.61  17426.56  36.74
1025.0  47461.87  17662.79  37.21
1029.0  47354.18  17847.84  37.69
1032.9  47271.77  18039.39  38.16
1036.9  47308.70  18293.71  38.67
1040.9  47476.08  18593.82  39.16
1044.8  47747.63  18922.27  39.63
1048.8  47970.59  19228.03  40.08
1052.7  48104.60  19470.45  40.48
1056.7  48183.46  19612.92  40.70
1060.7  48250.82  19747.28  40.93
1064.6  48272.17  19860.74  41.14
1068.6  48190.54  19885.60  41.26
1072.5  48116.11  19873.36  41.30
1076.5  48076.67  19848.29  41.28
1080.4  48048.88  19791.45  41.19
1084.4  48150.59  19727.04  40.97
1088.3  48279.53  19646.69  40.69
1092.3  48252.92  19477.19  40.36
1096.2  48221.83  19309.12  40.04
1100.2  48245.69  19172.93  39.74
1104.1  48124.97  18957.27  39.39
1108.1  48059.38  18758.92  39.03
1112.0  47955.87  18501.10  38.58
1116.0  47754.46  18181.51  38.07
1119.9  47569.76  17838.66  37.50
1123.9  47623.80  17486.53  36.72
1127.8  47592.96  16961.28  35.64
1131.8  47556.42  16299.18  34.27
1135.7  47568.82  15524.04  32.63
1139.6  47554.30  14673.07  30.86
1143.6  47510.71  13886.96  29.23
1147.5  47481.98  13236.28  27.88
1151.4  47337.52  12691.63  26.81
1155.4  47322.86  12363.93  26.13
1159.3  47329.81  12167.88  25.71
1163.2  47159.49  11977.24  25.40
1167.2  47113.86  11864.31  25.18
1171.1  47117.13  11788.93  25.02
1175.0  47022.16  11708.58  24.90
1179.0  46962.63  11638.26  24.78
1182.9  47045.30  11591.58  24.64
1186.8  47019.62  11526.64  24.51
1190.7  46784.64  11412.46  24.39
1194.7  46508.35  11301.99  24.30
1198.6  46264.68  11230.07  24.27
1202.5  46100.54  11199.60  24.29
1206.4  45962.62  11195.85  24.36
1210.3  45829.98  11211.84  24.46
1214.2  45707.13  11230.60  24.57
1218.2  45554.16  11241.59  24.68
1222.1  45384.95  11280.74  24.86
1226.0  45257.55  11332.94  25.04
1229.9  45156.00  11379.63  25.20
1233.8  45033.17  11425.02  25.37
1237.7  44950.68  11461.41  25.50
1241.6  44841.64  11479.49  25.60
1245.5  44683.61  11485.85  25.70
1249.4  44538.65  11485.83  25.79
1253.3  44401.40  11494.48  25.89
1257.2  44324.52  11515.96  25.98
1261.1  44209.48  11508.00  26.03
1265.0  44086.55  11480.81  26.04
1268.9  43910.05  11420.06  26.01
1272.8  43969.80  11408.55  25.95
1276.7  44155.69  11421.00  25.87
1280.6  44249.88  11380.85  25.72
1284.5  44188.89  11277.32  25.52
1288.4  44167.03  11171.12  25.29
1292.3  44060.50  11023.38  25.02
1296.2  43934.23  10845.15  24.68
1300.1  43787.98  10635.68  24.29
1303.9  43564.57  10389.64  23.85
1307.8  43339.22  10125.38  23.36
1311.7  43109.06  9839.33  22.82
1315.6  42877.90  9552.96  22.28
1319.5  42633.84  9231.99  21.65
1323.3  42417.44  8900.89  20.98
1327.2  42218.70  8579.38  20.32
1331.1  42002.86  8256.23  19.66
1335.0  41739.72  7927.97  18.99
1338.8  41543.11  7632.61  18.37
1342.7  41389.31  7369.31  17.80
1346.5  41042.00  7077.26  17.24
1350.4  40741.74  6814.15  16.73
1354.3  40332.24  6543.98  16.23
1358.1  39895.31  6278.95  15.74
1362.0  39644.33  6054.05  15.27
1365.8  39567.12  5852.94  14.79
1369.7  39683.68  5660.46  14.26
1373.5  39615.26  5366.49  13.55
1377.4  39354.79  4977.20  12.65
1381.2  39167.92  4540.56  11.59
1385.1  39160.09  4118.05  10.52
1389.0  39060.88  3703.70  9.48
1392.8  38834.72  3286.33  8.46
1396.6  38680.88  2921.82  7.55
1400.5  38476.57  2619.57  6.81
1404.3  38299.58  2382.84  6.22
1408.2  38263.03  2204.86  5.76
1412.0  38218.70  2068.10  5.41
1415.8  38249.29  1965.70  5.14
1419.6  38208.11  1886.50  4.94
1423.5  38172.20  1831.02  4.80
1427.3  38125.77  1786.24  4.69
1431.1  38099.78  1754.22  4.60
1434.9  38010.73  1728.82  4.55
1438.8  37949.80  1715.42  4.52
1442.6  37913.52  1703.31  4.49
1446.4  37795.09  1690.72  4.47
1450.2  37700.99  1684.43  4.47
1454.0  37583.52  1675.80  4.46
1457.8  37547.69  1678.61  4.47
1461.6  37527.24  1690.67  4.51
1465.4  37404.28  1705.48  4.56
1469.2  37216.73  1722.18  4.63
1473.0  37080.95  1749.88  4.72
1476.8  37019.78  1790.51  4.84
1480.7  36949.43  1835.74  4.97
1484.4  36826.56  1891.26  5.14
1488.2  36723.96  1958.52  5.33
1492.0  36584.11  2026.14  5.54
1495.8  36452.33  2087.32  5.73
1499.6  36350.05  2137.70  5.88
