/*** Spectra Vista SIG Data ***/
name= RS3.sig
comm= Averaged Ref/Tar of files: RD6S7,RD6S8,RD6S9
data=
346.4  350.35  42.26  12.06
347.9  381.21  42.46  11.14
349.5  410.28  42.64  10.39
351.1  433.68  39.73  9.16
352.6  475.96  41.11  8.64
354.2  499.06  42.11  8.44
355.7  540.48  48.94  9.06
357.3  582.54  49.93  8.57
358.8  588.91  48.00  8.15
360.4  636.67  50.65  7.96
361.9  668.64  51.31  7.67
363.5  692.50  50.56  7.30
365.1  712.57  50.63  7.10
366.6  747.47  51.79  6.93
368.2  792.37  52.16  6.58
369.7  840.74  52.67  6.27
371.3  898.85  54.00  6.01
372.8  941.22  56.00  5.95
374.4  986.23  56.96  5.78
375.9  1017.83  57.37  5.64
377.4  1052.18  56.59  5.38
379.0  1086.82  54.32  5.00
380.5  1123.29  54.37  4.84
382.1  1153.93  55.36  4.80
383.6  1194.95  55.00  4.60
385.2  1251.25  54.45  4.35
386.7  1299.60  51.26  3.94
388.3  1372.34  55.80  4.07
389.8  1424.66  56.36  3.96
391.3  1483.01  58.86  3.97
392.9  1530.61  58.99  3.85
394.4  1562.39  63.70  4.08
395.9  1621.81  65.10  4.01
397.5  1711.90  66.54  3.89
399.0  1784.48  66.54  3.73
400.6  1838.09  65.28  3.55
402.1  1856.31  62.09  3.34
403.6  1888.03  60.26  3.19
405.1  1944.54  59.56  3.06
406.7  2010.40  60.18  2.99
408.2  2079.37  59.70  2.87
409.7  2148.16  60.93  2.84
411.3  2213.53  61.66  2.79
412.8  2271.65  64.62  2.84
414.3  2341.03  66.57  2.84
415.8  2417.50  69.17  2.86
417.4  2490.79  68.82  2.76
418.9  2548.98  71.18  2.79
420.4  2593.45  73.11  2.82
421.9  2640.22  71.79  2.72
423.5  2679.41  71.76  2.68
425.0  2722.85  72.52  2.66
426.5  2778.88  71.09  2.56
428.0  2849.90  69.92  2.45
429.5  2939.79  70.58  2.40
431.1  3042.79  70.04  2.30
432.6  3149.06  74.21  2.36
434.1  3259.99  77.52  2.38
435.6  3346.58  77.79  2.32
437.1  3441.75  80.34  2.33
438.6  3531.11  81.09  2.30
440.1  3611.12  83.13  2.30
441.6  3703.62  85.31  2.30
443.1  3787.76  84.38  2.23
444.7  3873.68  87.82  2.27
446.2  3941.61  87.57  2.22
447.7  4009.71  91.05  2.27
449.2  4084.56  91.30  2.24
450.7  4145.44  90.96  2.19
452.2  4210.01  91.31  2.17
453.7  4291.20  92.63  2.16
455.2  4393.26  91.67  2.09
456.7  4515.28  93.28  2.07
458.2  4654.47  97.86  2.10
459.7  4795.00  99.52  2.08
461.2  4934.06  100.60  2.04
462.7  5054.96  103.46  2.05
464.2  5177.07  106.75  2.06
465.7  5301.12  109.77  2.07
467.2  5404.44  113.45  2.10
468.7  5508.00  115.73  2.10
470.2  5586.81  118.53  2.12
471.7  5702.38  122.55  2.15
473.2  5885.72  128.72  2.19
474.6  6027.25  128.53  2.13
476.1  6074.86  126.64  2.08
477.6  6093.70  126.71  2.08
479.1  6122.60  124.87  2.04
480.6  6163.05  125.37  2.03
482.1  6243.66  127.02  2.03
483.6  6332.42  127.32  2.01
485.1  6458.38  129.28  2.00
486.6  6604.00  130.70  1.98
488.0  6753.50  134.01  1.98
489.5  6913.82  136.63  1.98
491.0  7075.65  138.25  1.95
492.5  7238.97  141.91  1.96
494.0  7404.10  145.41  1.96
495.4  7549.58  148.39  1.97
496.9  7695.36  152.42  1.98
498.4  7836.28  155.26  1.98
499.9  7979.51  160.87  2.02
501.4  8103.78  161.47  1.99
502.8  8223.51  164.72  2.00
504.3  8333.10  167.52  2.01
505.8  8444.88  170.81  2.02
507.2  8514.20  173.79  2.04
508.7  8565.01  176.06  2.06
510.2  8590.79  178.09  2.07
511.6  8618.22  178.95  2.08
513.1  8670.26  181.27  2.09
514.6  8732.77  181.30  2.08
516.0  8783.27  184.31  2.10
517.5  8880.96  185.22  2.09
519.0  8994.65  188.89  2.10
520.5  9112.66  190.46  2.09
521.9  9263.01  194.68  2.10
523.4  9434.43  199.38  2.11
524.8  9608.27  203.94  2.12
526.3  9802.81  208.71  2.13
527.8  10000.35  213.43  2.13
529.2  10181.33  220.05  2.16
530.7  10383.39  227.40  2.19
532.1  10567.68  231.53  2.19
533.6  10773.42  237.75  2.21
535.0  10980.59  244.28  2.22
536.5  11186.70  250.27  2.24
538.0  11401.56  256.86  2.25
539.4  11601.83  265.63  2.29
540.9  11838.18  273.52  2.31
542.3  12056.36  278.66  2.31
543.8  12205.88  284.20  2.33
545.2  12241.58  286.44  2.34
546.6  12248.30  287.58  2.35
548.1  12260.70  289.94  2.36
549.5  12261.13  291.86  2.38
551.0  12260.01  294.74  2.40
552.4  12274.54  299.62  2.44
553.9  12279.40  302.87  2.47
555.3  12300.80  303.62  2.47
556.8  12360.66  307.87  2.49
558.2  12414.09  312.87  2.52
559.6  12499.51  318.60  2.55
561.1  12612.44  324.68  2.57
562.5  12742.28  332.25  2.61
564.0  12915.37  340.88  2.64
565.4  13070.62  348.89  2.67
566.8  13269.64  359.32  2.71
568.3  13461.39  369.22  2.74
569.7  13659.35  379.91  2.78
571.1  13859.91  391.49  2.82
572.6  14064.03  403.49  2.87
574.0  14250.23  416.24  2.92
575.4  14437.41  428.85  2.97
576.9  14612.77  442.83  3.03
578.3  14771.90  455.34  3.08
579.7  14927.19  468.45  3.14
581.1  15049.34  483.38  3.21
582.6  15179.87  497.13  3.27
584.0  15306.40  512.61  3.35
585.4  15471.50  527.91  3.41
586.8  15703.41  547.42  3.49
588.3  15959.97  565.03  3.54
589.7  16164.72  581.41  3.60
591.1  16308.26  597.95  3.67
592.5  16380.50  611.78  3.73
594.0  16416.90  626.19  3.81
595.4  16426.30  639.03  3.89
596.8  16438.21  651.65  3.96
598.2  16446.40  665.50  4.05
599.6  16446.15  680.75  4.14
601.0  16488.64  694.35  4.21
602.4  16524.83  712.06  4.31
603.9  16595.00  729.67  4.40
605.3  16677.56  750.43  4.50
606.7  16748.10  769.20  4.59
608.1  16880.08  792.95  4.70
609.5  17023.96  818.69  4.81
610.9  17200.20  848.65  4.93
612.3  17363.60  876.48  5.05
613.7  17583.26  909.65  5.17
615.1  17730.09  943.71  5.32
616.5  17885.32  974.88  5.45
617.9  18120.27  1014.49  5.60
619.3  18343.55  1055.45  5.75
620.7  18613.68  1100.46  5.91
622.1  18877.69  1137.48  6.03
623.5  19168.37  1174.79  6.13
624.9  19495.88  1214.22  6.23
626.3  19705.80  1251.98  6.35
627.7  19502.63  1267.43  6.50
629.1  19316.59  1288.10  6.67
630.5  19234.56  1315.84  6.84
631.9  19243.16  1351.96  7.03
633.3  19227.78  1387.86  7.22
634.7  19307.14  1429.05  7.40
636.1  19335.07  1465.12  7.58
637.5  19378.14  1506.09  7.77
638.9  19457.31  1548.59  7.96
640.2  19514.53  1590.17  8.15
641.6  19531.98  1630.20  8.35
643.0  19504.65  1670.19  8.56
644.4  19507.28  1711.95  8.78
645.8  19449.04  1747.11  8.98
647.2  19526.59  1795.69  9.20
648.5  19579.91  1842.67  9.41
649.9  19492.88  1878.94  9.64
651.3  19428.45  1916.58  9.86
652.7  19344.30  1952.62  10.09
654.1  19217.52  1950.78  10.15
655.5  19076.42  1932.82  10.13
656.8  18936.77  1920.33  10.14
658.2  19052.33  1936.14  10.16
659.6  19274.42  1966.98  10.21
660.9  19463.87  2001.33  10.28
662.3  19650.11  2034.20  10.35
663.7  19826.10  2070.46  10.44
665.0  19986.79  2103.32  10.52
666.4  20146.14  2144.16  10.64
667.8  20346.56  2192.96  10.78
669.1  20529.76  2239.28  10.91
670.5  20738.52  2296.86  11.08
671.9  20872.26  2348.86  11.25
673.2  21059.41  2419.10  11.49
674.6  21230.21  2494.36  11.75
676.0  21420.32  2578.47  12.04
677.3  21614.12  2669.73  12.35
678.7  21817.38  2768.74  12.69
680.0  22089.50  2883.35  13.05
681.4  22373.47  3000.72  13.41
682.8  22657.86  3125.40  13.79
684.1  22942.53  3251.35  14.17
685.5  23200.94  3375.51  14.55
686.8  23448.72  3494.35  14.90
688.2  23672.40  3602.77  15.22
689.5  23749.65  3691.67  15.54
690.9  23825.77  3779.85  15.86
692.2  23869.28  3862.40  16.18
693.6  23926.69  3946.39  16.49
694.9  23920.11  4015.40  16.79
696.2  23942.14  4087.91  17.07
697.6  23961.85  4157.36  17.35
698.9  23992.32  4230.34  17.63
700.3  24038.01  4310.80  17.93
701.6  24084.68  4389.40  18.22
703.0  24137.54  4466.18  18.50
704.3  24141.49  4532.71  18.78
705.6  24144.66  4597.17  19.04
707.0  24151.61  4665.40  19.32
708.3  24094.31  4717.20  19.58
709.6  24038.25  4766.17  19.83
711.0  23936.43  4807.81  20.09
712.3  23827.16  4851.25  20.36
713.6  23789.01  4906.27  20.62
714.9  23716.29  4951.72  20.88
716.3  23686.39  5006.65  21.14
717.6  23672.15  5068.04  21.41
718.9  23614.96  5108.83  21.63
720.2  23494.56  5137.67  21.87
721.6  23399.74  5172.30  22.10
722.9  23270.63  5202.58  22.36
724.2  23091.17  5224.07  22.62
725.5  22957.02  5253.23  22.88
726.8  22832.78  5276.38  23.11
728.1  22750.67  5308.53  23.33
729.5  22685.44  5345.30  23.56
730.8  22628.18  5388.68  23.81
732.1  22547.20  5422.71  24.05
733.4  22493.78  5465.54  24.30
734.7  22430.29  5502.50  24.53
736.0  22412.65  5548.71  24.76
737.3  22354.35  5595.51  25.03
738.6  22392.88  5664.27  25.29
739.9  22486.41  5748.31  25.56
741.2  22557.99  5822.91  25.81
742.5  22690.46  5926.80  26.12
743.8  22954.18  6059.51  26.40
745.1  23356.68  6231.67  26.68
746.4  23838.13  6423.30  26.95
747.7  24340.83  6615.15  27.18
749.0  24845.90  6795.52  27.35
750.3  25109.11  6914.70  27.54
751.6  25056.94  6943.32  27.71
752.9  24812.33  6929.39  27.93
754.2  24511.78  6906.24  28.18
755.4  24190.11  6885.89  28.47
756.7  24095.29  6924.99  28.74
758.0  24119.44  6999.70  29.02
759.3  24282.67  7124.26  29.34
760.6  24509.10  7262.64  29.63
761.9  24709.31  7390.55  29.91
763.1  24854.26  7493.38  30.15
764.4  25021.13  7607.43  30.40
765.7  25148.50  7705.53  30.64
767.0  25255.87  7802.71  30.89
768.2  25351.20  7892.64  31.13
769.5  25424.49  7978.72  31.38
770.8  25570.26  8082.19  31.61
772.0  25587.81  8154.21  31.87
773.3  25669.17  8241.21  32.11
774.6  25760.75  8331.19  32.34
775.8  25826.13  8410.87  32.57
777.1  25851.30  8482.36  32.81
778.4  25836.83  8535.31  33.04
779.6  25861.37  8598.58  33.25
780.9  25820.00  8654.40  33.52
782.1  25728.02  8685.28  33.76
783.4  25750.40  8748.76  33.98
784.6  25767.74  8818.51  34.22
785.9  25975.04  8958.35  34.49
787.1  26352.59  9160.17  34.76
788.4  26662.70  9309.04  34.91
789.6  26677.46  9323.30  34.95
790.9  26422.83  9257.38  35.04
792.1  26144.60  9211.16  35.23
793.4  25865.12  9172.21  35.46
794.6  25676.57  9166.92  35.70
795.8  25513.36  9164.32  35.92
797.1  25350.08  9162.20  36.14
798.3  25228.50  9177.85  36.38
799.5  25169.97  9207.21  36.58
800.8  25099.23  9228.65  36.77
802.0  25011.42  9249.73  36.98
803.2  24918.76  9265.10  37.18
804.5  24860.18  9286.80  37.36
805.7  24781.04  9302.48  37.54
806.9  24699.71  9315.17  37.71
808.1  24647.73  9340.86  37.90
809.4  24609.13  9376.29  38.10
810.6  24558.63  9400.60  38.28
811.8  24538.32  9443.13  38.48
813.0  24560.28  9488.07  38.63
814.2  24583.06  9538.10  38.80
815.4  24644.79  9603.84  38.97
816.6  24675.27  9647.76  39.10
817.9  24704.84  9684.86  39.20
819.1  24672.89  9690.27  39.27
820.3  24583.02  9677.65  39.37
821.5  24511.70  9680.92  39.50
822.7  24474.49  9695.75  39.62
823.9  24466.74  9722.91  39.74
825.1  24483.13  9742.54  39.79
826.3  24493.16  9761.83  39.86
827.5  24511.03  9785.31  39.92
828.7  24560.16  9805.82  39.93
829.9  24556.61  9821.73  40.00
831.0  24631.50  9852.60  40.00
832.2  24684.15  9884.75  40.04
833.4  24732.69  9916.34  40.09
834.6  24771.09  9958.12  40.20
835.8  24806.25  9989.91  40.27
837.0  24848.21  10040.04  40.41
838.1  24942.61  10096.52  40.48
839.3  24987.97  10141.61  40.59
840.5  25056.73  10194.58  40.69
841.7  25139.84  10259.06  40.81
842.9  25202.72  10322.88  40.96
844.0  25272.39  10374.27  41.05
845.2  25356.92  10439.99  41.17
846.4  25406.55  10491.06  41.29
847.5  25535.27  10567.25  41.38
848.7  25649.51  10639.55  41.48
849.9  25759.43  10701.64  41.54
851.0  25787.85  10726.60  41.60
852.2  25836.49  10761.82  41.65
853.3  25835.02  10772.17  41.70
854.5  25803.13  10791.47  41.82
855.6  25784.28  10810.99  41.93
856.8  25811.14  10845.10  42.02
857.9  25796.36  10860.66  42.10
859.1  25866.40  10914.07  42.19
860.2  25870.46  10934.74  42.27
861.4  25883.89  10966.96  42.37
862.5  25913.95  10997.12  42.44
863.7  25967.63  11042.55  42.52
864.8  25978.23  11064.71  42.59
865.9  25934.02  11072.20  42.69
867.1  25972.57  11089.30  42.70
868.2  25960.64  11105.92  42.78
869.3  25983.57  11127.15  42.82
870.5  25945.69  11116.41  42.84
871.6  25952.82  11126.23  42.87
872.7  25988.86  11161.27  42.95
873.9  26010.48  11177.86  42.97
875.0  25998.57  11172.34  42.97
876.1  25976.68  11167.60  42.99
877.2  25992.15  11184.29  43.03
878.3  25997.76  11182.33  43.01
879.4  26016.59  11190.79  43.01
880.5  26032.32  11192.35  42.99
881.7  26038.68  11192.31  42.98
882.8  26051.76  11200.07  42.99
883.9  26088.59  11196.17  42.92
885.0  26049.66  11164.56  42.86
886.1  26068.54  11143.22  42.75
887.2  25979.14  11100.48  42.73
888.3  25929.87  11064.37  42.67
889.4  25867.81  11021.34  42.61
890.5  25830.84  10993.30  42.56
891.6  25777.28  10970.16  42.56
892.7  25812.52  10956.52  42.45
893.8  25792.32  10966.81  42.52
894.9  25833.34  10957.83  42.42
896.0  25797.95  10938.35  42.40
897.0  25823.30  10939.90  42.36
898.1  25837.83  10923.34  42.28
899.2  25853.12  10908.50  42.19
900.3  25827.20  10867.99  42.08
901.4  25755.93  10843.51  42.10
902.4  25796.28  10827.37  41.97
903.5  25760.57  10801.79  41.93
904.6  25773.48  10783.58  41.84
905.7  25786.56  10762.39  41.74
906.7  25778.44  10745.60  41.68
907.8  25791.16  10735.50  41.62
908.9  25756.23  10690.55  41.51
909.9  25738.83  10664.56  41.43
911.0  25715.27  10635.91  41.36
912.1  25708.69  10587.05  41.18
913.1  25683.06  10533.40  41.01
914.2  25568.28  10475.50  40.97
915.2  25594.38  10440.22  40.79
916.3  25582.28  10394.38  40.63
917.3  25579.53  10347.65  40.45
918.4  25529.08  10272.68  40.24
919.4  25526.52  10218.81  40.03
920.5  25540.93  10157.15  39.77
921.5  25532.64  10101.11  39.56
922.6  25509.72  10013.60  39.25
923.6  25552.64  9952.87  38.95
924.7  25558.13  9892.15  38.70
925.7  25559.01  9814.55  38.40
926.7  25571.07  9732.58  38.06
927.8  25622.74  9657.29  37.69
928.8  25737.00  9583.86  37.24
929.9  25798.01  9511.27  36.87
930.9  25912.02  9452.93  36.48
931.9  26063.45  9407.44  36.09
932.9  26272.00  9368.04  35.66
934.0  26311.65  9270.89  35.23
935.0  26328.00  9169.14  34.83
936.0  26313.67  9059.06  34.43
937.0  26305.79  8955.35  34.04
938.1  26273.03  8844.87  33.67
939.1  26282.27  8732.72  33.23
940.1  26307.38  8645.30  32.86
941.1  26474.98  8564.18  32.35
942.1  26613.43  8495.80  31.92
943.1  26709.35  8421.18  31.53
944.1  26891.46  8348.80  31.05
945.2  26931.87  8229.51  30.56
946.2  27005.05  8127.46  30.10
947.2  27050.94  8018.76  29.64
948.2  27161.01  7927.34  29.19
949.2  27258.97  7822.48  28.70
950.2  27257.00  7692.84  28.22
951.2  27381.90  7572.21  27.65
952.2  27427.92  7463.26  27.21
953.2  27549.11  7362.20  26.72
954.2  27670.16  7276.20  26.30
955.2  27683.23  7158.93  25.86
956.2  27678.04  7085.45  25.60
957.2  27683.31  6987.35  25.24
958.2  27771.67  6927.43  24.94
959.2  27855.45  6896.43  24.76
960.1  27895.78  6835.23  24.50
961.1  27947.74  6798.21  24.32
962.1  27921.09  6783.00  24.29
963.1  28038.72  6759.45  24.11
964.1  28081.62  6728.88  23.96
965.1  28159.91  6729.22  23.90
966.1  28230.04  6703.08  23.74
967.0  28291.66  6709.62  23.72
968.0  28354.15  6692.19  23.60
969.0  28355.00  6696.77  23.62
970.0  28440.42  6704.15  23.57
971.0  28447.07  6700.31  23.55
971.9  28529.94  6702.64  23.49
972.9  28619.85  6712.39  23.45
973.9  28640.46  6708.03  23.42
974.9  28629.25  6704.40  23.42
975.8  28737.28  6730.44  23.42
976.8  28722.61  6731.44  23.44
977.8  28846.97  6751.67  23.41
978.8  28789.28  6778.22  23.54
979.7  28914.30  6771.73  23.42
980.7  28909.16  6826.32  23.61
981.7  29108.19  6875.24  23.62
982.6  29310.11  6929.44  23.64
983.6  29612.62  6974.82  23.55
984.6  29886.86  7120.52  23.82
985.5  30220.02  7251.89  24.00
986.5  30590.42  7414.42  24.24
987.5  31346.01  7589.03  24.21
988.4  31956.65  7760.65  24.28
989.4  32957.10  7947.99  24.12
990.4  33646.09  8164.59  24.27
991.3  34254.92  8441.59  24.64
992.3  35605.12  8646.96  24.29
993.2  35791.00  8766.36  24.49
994.2  37066.33  9125.32  24.62
995.2  37769.29  9437.66  24.99
996.1  38356.88  9433.85  24.59
997.1  37945.80  9402.31  24.78
998.0  38542.50  9524.28  24.71
999.0  38301.25  9153.76  23.90
1000.0  38064.02  9300.37  24.43
1000.9  38955.51  9706.09  24.92
1001.9  38313.61  9622.32  25.11
1002.8  38469.11  9338.52  24.28
1003.8  38840.71  9484.70  24.42
1004.8  39018.78  9279.32  23.78
961.5  34418.44  6155.36  17.88
965.5  34203.70  6198.18  18.12
969.5  33124.73  6122.28  18.48
973.4  31599.68  6025.42  19.07
977.4  30418.99  5955.82  19.58
981.4  29806.10  5994.38  20.11
985.3  29606.90  6101.45  20.61
989.3  29665.19  6270.53  21.14
993.3  29713.32  6448.77  21.70
997.2  29668.74  6589.80  22.21
1001.2  29627.00  6729.23  22.71
1005.2  29568.23  6878.12  23.26
1009.1  29600.49  7054.04  23.83
1013.1  29702.49  7264.88  24.46
1017.1  29789.49  7496.03  25.16
1021.0  29789.99  7722.71  25.92
1025.0  29760.59  7953.39  26.72
1029.0  29636.30  8164.02  27.55
1032.9  29533.53  8362.77  28.32
1036.9  29509.70  8578.42  29.07
1040.9  29556.91  8821.59  29.85
1044.8  29679.34  9077.43  30.59
1048.8  29786.37  9311.51  31.26
1052.7  29868.84  9517.39  31.86
1056.7  29898.31  9654.71  32.29
1060.7  29913.73  9761.98  32.63
1064.6  29918.21  9858.73  32.95
1068.6  29859.11  9880.22  33.09
1072.5  29814.52  9850.11  33.04
1076.5  29798.83  9811.24  32.92
1080.4  29797.49  9740.71  32.69
1084.4  29858.05  9652.85  32.33
1088.3  29928.60  9548.49  31.90
1092.3  29919.24  9376.59  31.34
1096.2  29930.07  9184.72  30.69
1100.2  29956.02  9006.25  30.06
1104.1  29873.92  8785.72  29.41
1108.1  29858.25  8571.74  28.71
1112.0  29809.22  8346.42  28.00
1116.0  29674.06  8084.64  27.24
1119.9  29580.84  7782.58  26.31
1123.9  29636.88  7462.67  25.18
1127.8  29621.76  7036.16  23.75
1131.8  29615.13  6515.10  22.00
1135.7  29658.37  5953.69  20.07
1139.6  29649.41  5411.02  18.25
1143.6  29635.32  4948.64  16.70
1147.5  29635.02  4586.33  15.48
1151.4  29535.85  4309.71  14.59
1155.4  29547.88  4145.78  14.03
1159.3  29582.50  4040.81  13.66
1163.2  29498.44  3957.75  13.42
1167.2  29505.90  3916.42  13.27
1171.1  29517.01  3877.63  13.14
1175.0  29484.53  3839.66  13.02
1179.0  29486.15  3807.69  12.91
1182.9  29537.81  3781.45  12.80
1186.8  29538.86  3755.67  12.71
1190.7  29410.97  3716.55  12.64
1194.7  29255.48  3672.87  12.55
1198.6  29133.72  3645.18  12.51
1202.5  29044.69  3633.61  12.51
1206.4  28972.03  3623.65  12.51
1210.3  28920.11  3618.99  12.51
1214.2  28863.76  3626.21  12.56
1218.2  28763.18  3626.53  12.61
1222.1  28692.28  3629.80  12.65
1226.0  28656.56  3649.68  12.74
1229.9  28600.92  3665.48  12.82
1233.8  28545.33  3675.79  12.88
1237.7  28520.81  3688.80  12.93
1241.6  28465.46  3700.47  13.00
1245.5  28370.21  3697.70  13.03
1249.4  28299.76  3697.83  13.07
1253.3  28232.22  3703.33  13.12
1257.2  28191.00  3699.35  13.12
1261.1  28130.65  3688.74  13.11
1265.0  28057.45  3679.19  13.11
1268.9  27949.80  3658.93  13.09
1272.8  27989.85  3648.00  13.03
1276.7  28109.94  3640.03  12.95
1280.6  28175.48  3613.91  12.83
1284.5  28132.96  3566.42  12.68
1288.4  28112.11  3523.87  12.54
1292.3  28036.25  3467.75  12.37
1296.2  27954.20  3397.93  12.16
1300.1  27848.52  3319.83  11.92
1303.9  27706.57  3232.39  11.67
1307.8  27559.31  3142.57  11.40
1311.7  27397.23  3049.61  11.13
1315.6  27238.78  2954.05  10.85
1319.5  27066.08  2856.34  10.55
1323.3  26913.00  2758.31  10.25
1327.2  26776.06  2670.36  9.97
1331.1  26621.95  2581.64  9.70
1335.0  26429.02  2487.93  9.41
1338.8  26290.11  2413.04  9.18
1342.7  26169.42  2341.21  8.95
1346.5  25929.13  2262.27  8.72
1350.4  25728.90  2198.16  8.54
1354.3  25457.85  2129.20  8.36
1358.1  25158.95  2053.20  8.16
1362.0  24980.59  1995.08  7.99
1365.8  24927.82  1949.71  7.82
1369.7  24996.19  1903.61  7.62
1373.5  24961.93  1845.66  7.39
1377.4  24802.90  1758.37  7.09
1381.2  24660.90  1660.43  6.73
1385.1  24643.85  1565.10  6.35
1389.0  24592.75  1463.98  5.95
1392.8  24461.78  1358.15  5.55
1396.6  24365.22  1261.52  5.18
1400.5  24231.60  1176.94  4.86
1404.3  24125.27  1107.57  4.59
1408.2  24097.32  1047.96  4.35
1412.0  24070.61  1001.84  4.16
1415.8  24101.54  973.10  4.04
1419.6  24084.23  942.86  3.91
1423.5  24070.46  919.24  3.82
1427.3  24053.34  900.91  3.75
1431.1  24042.83  885.83  3.68
1434.9  23983.10  872.72  3.64
1438.8  23944.05  866.58  3.62
