/*** Spectra Vista SIG Data ***/
name= RS.sig
comm= Averaged Ref/Tar of files: RD2S13,RD2S14,RD2S15
data=
346.4  509.60  145.03  28.46
347.9  549.06  151.02  27.51
349.5  608.40  149.55  24.58
351.1  655.20  155.17  23.68
352.6  708.40  154.12  21.76
354.2  752.68  155.23  20.62
355.7  818.30  168.82  20.63
357.3  873.81  174.19  19.93
358.8  891.23  175.68  19.71
360.4  967.31  177.87  18.39
361.9  1009.93  180.51  17.87
363.5  1059.53  188.36  17.78
365.1  1102.67  177.88  16.13
366.6  1156.59  186.78  16.15
368.2  1218.77  183.43  15.05
369.7  1306.00  182.19  13.95
371.3  1379.56  185.70  13.46
372.8  1457.48  183.71  12.60
374.4  1528.58  193.02  12.63
375.9  1575.56  193.42  12.28
377.4  1632.76  189.51  11.61
379.0  1683.54  199.65  11.86
380.5  1741.87  192.35  11.04
382.1  1805.51  188.63  10.45
383.6  1862.60  186.07  9.99
385.2  1949.75  188.93  9.69
386.7  2036.04  187.00  9.18
388.3  2135.96  192.85  9.03
389.8  2212.47  202.67  9.16
391.3  2314.34  203.03  8.77
392.9  2392.65  211.29  8.83
394.4  2474.90  219.20  8.86
395.9  2552.82  231.31  9.06
397.5  2664.75  242.90  9.12
399.0  2774.82  239.68  8.64
400.6  2852.64  229.99  8.06
402.1  2910.24  225.66  7.75
403.6  2965.71  219.61  7.40
405.1  3036.77  217.53  7.16
406.7  3133.76  219.82  7.01
408.2  3234.33  224.76  6.95
409.7  3330.88  231.84  6.96
411.3  3437.91  235.55  6.85
412.8  3528.93  247.03  7.00
414.3  3634.54  253.64  6.98
415.8  3740.00  259.83  6.95
417.4  3868.37  259.16  6.70
418.9  3954.39  267.67  6.77
420.4  4037.85  272.76  6.76
421.9  4106.74  271.85  6.62
423.5  4196.00  271.72  6.48
425.0  4263.51  273.74  6.42
426.5  4364.50  273.70  6.27
428.0  4488.82  271.14  6.04
429.5  4615.58  271.63  5.89
431.1  4756.23  277.93  5.84
432.6  4917.76  285.36  5.80
434.1  5064.68  291.96  5.76
435.6  5199.35  296.51  5.70
437.1  5333.25  306.61  5.75
438.6  5454.84  314.46  5.76
440.1  5584.70  318.78  5.71
441.6  5717.14  328.41  5.74
443.1  5852.25  329.60  5.63
444.7  5982.11  342.64  5.73
446.2  6104.50  349.92  5.73
447.7  6213.60  356.63  5.74
449.2  6315.84  361.30  5.72
450.7  6414.72  362.27  5.65
452.2  6543.45  364.25  5.57
453.7  6682.65  366.17  5.48
455.2  6842.54  373.06  5.45
456.7  7029.44  379.28  5.40
458.2  7231.16  391.32  5.41
459.7  7428.75  400.23  5.39
461.2  7633.63  408.60  5.35
462.7  7815.14  425.37  5.44
464.2  8000.76  432.62  5.41
465.7  8191.53  446.66  5.45
467.2  8352.58  453.15  5.43
468.7  8552.00  468.80  5.48
470.2  8711.17  481.23  5.52
471.7  8854.00  494.87  5.59
473.2  9050.37  503.79  5.57
474.6  9252.88  510.98  5.52
476.1  9378.88  504.49  5.38
477.6  9464.51  507.13  5.36
479.1  9567.20  504.04  5.27
480.6  9658.16  506.26  5.24
482.1  9797.74  507.66  5.18
483.6  9963.22  512.16  5.14
485.1  10140.49  520.59  5.13
486.6  10356.19  528.25  5.10
488.0  10562.50  537.50  5.09
489.5  10784.97  551.84  5.12
491.0  10998.86  561.53  5.11
492.5  11224.98  576.02  5.13
494.0  11462.99  591.82  5.16
495.4  11663.85  604.84  5.19
496.9  11870.36  617.29  5.20
498.4  12074.30  630.68  5.22
499.9  12278.41  642.58  5.23
501.4  12476.75  654.73  5.25
502.8  12664.51  665.93  5.26
504.3  12846.60  679.38  5.29
505.8  13033.73  689.27  5.29
507.2  13172.68  696.07  5.28
508.7  13289.99  703.42  5.29
510.2  13412.81  707.63  5.28
511.6  13494.72  710.14  5.26
513.1  13630.43  716.77  5.26
514.6  13795.53  719.75  5.22
516.0  13946.28  720.84  5.17
517.5  14135.83  728.91  5.16
519.0  14365.19  733.85  5.11
520.5  14579.60  745.05  5.11
521.9  14828.55  755.78  5.10
523.4  15093.49  770.12  5.10
524.8  15349.14  782.46  5.10
526.3  15633.70  800.37  5.12
527.8  15915.89  816.43  5.13
529.2  16178.21  832.27  5.14
530.7  16455.24  851.17  5.17
532.1  16698.15  865.28  5.18
533.6  16994.07  883.77  5.20
535.0  17295.55  903.09  5.22
536.5  17581.25  923.35  5.25
538.0  17895.84  943.18  5.27
539.4  18160.64  965.08  5.31
540.9  18488.86  986.37  5.33
542.3  18738.28  1008.27  5.38
543.8  18940.29  1021.66  5.39
545.2  19020.35  1027.36  5.40
546.6  19057.19  1034.62  5.43
548.1  19121.11  1038.00  5.43
549.5  19166.91  1042.11  5.44
551.0  19217.70  1045.81  5.44
552.4  19311.21  1055.05  5.46
553.9  19371.38  1062.19  5.48
555.3  19461.20  1074.35  5.52
556.8  19596.88  1088.74  5.56
558.2  19743.75  1102.00  5.58
559.6  19902.71  1121.33  5.63
561.1  20117.50  1146.11  5.70
562.5  20332.52  1171.06  5.76
564.0  20611.34  1205.60  5.85
565.4  20865.50  1238.60  5.94
566.8  21177.73  1282.53  6.06
568.3  21463.05  1327.82  6.19
569.7  21776.78  1372.45  6.30
571.1  22080.65  1425.88  6.46
572.6  22373.82  1480.57  6.62
574.0  22675.95  1537.75  6.78
575.4  22958.44  1603.07  6.98
576.9  23231.09  1664.76  7.17
578.3  23477.03  1737.51  7.40
579.7  23721.74  1809.43  7.63
581.1  23920.49  1886.44  7.89
582.6  24132.47  1966.75  8.15
584.0  24305.80  2053.50  8.45
585.4  24549.94  2149.94  8.76
586.8  24845.17  2258.37  9.09
588.3  25201.80  2380.33  9.45
589.7  25517.70  2498.11  9.79
591.1  25735.55  2603.86  10.12
592.5  25883.00  2708.51  10.46
594.0  25998.42  2808.37  10.80
595.4  26057.54  2910.01  11.17
596.8  26115.38  3013.87  11.54
598.2  26174.55  3124.70  11.94
599.6  26202.06  3242.45  12.37
601.0  26298.70  3364.91  12.79
602.4  26372.18  3495.82  13.26
603.9  26501.77  3631.55  13.70
605.3  26625.41  3773.88  14.17
606.7  26749.80  3916.08  14.64
608.1  26941.18  4071.64  15.11
609.5  27151.69  4236.16  15.60
610.9  27387.74  4413.70  16.12
612.3  27589.20  4587.91  16.63
613.7  27871.80  4782.19  17.16
615.1  28061.64  4954.93  17.66
616.5  28235.16  5137.45  18.20
617.9  28534.12  5352.03  18.76
619.3  28808.15  5572.19  19.34
620.7  29149.14  5815.67  19.95
622.1  29527.66  6037.31  20.45
623.5  29951.83  6245.87  20.85
624.9  30436.35  6457.84  21.22
626.3  30757.12  6639.85  21.59
627.7  30461.43  6706.87  22.02
629.1  30188.34  6799.96  22.53
630.5  30083.03  6939.77  23.07
631.9  30076.12  7107.16  23.63
633.3  30078.24  7270.03  24.17
634.7  30183.54  7437.90  24.64
636.1  30268.81  7541.24  24.91
637.5  30374.19  7630.08  25.12
638.9  30520.15  7699.46  25.23
640.2  30643.60  7762.28  25.33
641.6  30733.56  7796.88  25.37
643.0  30777.50  7808.65  25.37
644.4  30869.16  7810.58  25.30
645.8  30855.38  7792.70  25.26
647.2  31023.20  7825.29  25.22
648.5  31185.15  7871.41  25.24
649.9  31117.13  7889.43  25.35
651.3  31099.80  7936.79  25.52
652.7  31059.00  7963.40  25.64
654.1  30961.56  7805.99  25.21
655.5  30829.51  7583.91  24.60
656.8  30685.81  7364.32  24.00
658.2  30861.69  7243.69  23.47
659.6  31181.89  7166.79  22.98
660.9  31452.29  7067.85  22.47
662.3  31767.46  6949.42  21.88
663.7  32102.70  6818.28  21.24
665.0  32334.98  6680.10  20.66
666.4  32575.38  6551.28  20.11
667.8  32873.84  6453.25  19.63
669.1  33084.01  6363.36  19.23
670.5  33327.47  6302.41  18.91
671.9  33513.12  6253.69  18.66
673.2  33742.50  6246.11  18.51
674.6  33950.66  6270.70  18.47
676.0  34219.05  6338.12  18.52
677.3  34494.18  6452.74  18.71
678.7  34767.13  6625.89  19.06
680.0  35103.31  6894.01  19.64
681.4  35420.13  7271.70  20.53
682.8  35763.00  7772.31  21.73
684.1  36073.44  8430.71  23.37
685.5  36318.59  9230.56  25.42
686.8  36607.26  10187.52  27.83
688.2  36844.31  11250.91  30.54
689.5  36898.97  12381.04  33.55
690.9  36950.15  13555.34  36.69
692.2  37008.15  14761.61  39.89
693.6  37024.93  15980.45  43.16
694.9  37005.38  17124.20  46.27
696.2  37027.13  18239.64  49.26
697.6  37047.86  19290.09  52.07
698.9  37049.76  20289.10  54.76
700.3  37075.62  21229.62  57.26
701.6  37124.24  22103.48  59.54
703.0  37178.40  22902.18  61.60
704.3  37172.20  23586.78  63.45
705.6  37157.22  24218.78  65.18
707.0  37168.46  24795.78  66.71
708.3  37076.04  25265.40  68.14
709.6  36967.81  25685.92  69.48
711.0  36867.73  26023.39  70.59
712.3  36770.31  26327.16  71.60
713.6  36755.88  26650.61  72.51
714.9  36684.64  26918.06  73.38
716.3  36701.44  27212.74  74.15
717.6  36734.04  27506.69  74.88
718.9  36680.73  27693.61  75.50
720.2  36496.25  27775.28  76.10
721.6  36394.28  27863.21  76.56
722.9  36240.12  27926.82  77.06
724.2  36067.30  27924.73  77.42
725.5  35963.70  27965.80  77.76
726.8  35833.96  27964.52  78.04
728.1  35810.80  28000.65  78.19
729.5  35779.10  28023.92  78.32
730.8  35779.13  28050.80  78.40
732.1  35704.25  28045.61  78.55
733.4  35690.92  28072.12  78.65
734.7  35685.89  28078.62  78.68
736.0  35729.66  28131.03  78.73
737.3  35717.44  28151.50  78.82
738.6  35830.21  28279.15  78.93
739.9  36014.88  28482.43  79.09
741.2  36161.58  28638.43  79.20
742.5  36363.94  28903.03  79.48
743.8  36737.66  29307.45  79.77
745.1  37309.08  29884.31  80.10
746.4  37926.98  30513.36  80.45
747.7  38536.99  31138.24  80.80
749.0  39118.92  31716.29  81.08
750.3  39493.02  32011.19  81.06
751.6  39440.80  31946.71  81.00
752.9  39084.79  31673.28  81.04
754.2  38731.25  31375.81  81.01
755.4  38386.91  31069.92  80.94
756.7  38244.09  31020.99  81.11
758.0  38261.36  31114.47  81.32
759.3  38489.95  31384.83  81.54
760.6  38786.44  31732.73  81.81
761.9  39062.28  32057.25  82.07
763.1  39197.21  32250.18  82.28
764.4  39371.54  32479.54  82.49
765.7  39490.75  32645.38  82.67
767.0  39577.16  32783.70  82.83
768.2  39644.64  32912.43  83.02
769.5  39697.68  33019.43  83.18
770.8  39836.32  33187.76  83.31
772.0  39856.44  33251.63  83.43
773.3  39898.95  33354.46  83.60
774.6  39978.84  33471.65  83.72
775.8  40054.79  33560.01  83.79
777.1  40085.96  33597.88  83.81
778.4  40059.57  33575.83  83.81
779.6  39999.54  33599.01  84.00
780.9  39948.00  33573.60  84.04
782.1  39837.20  33498.35  84.09
783.4  39802.88  33524.75  84.23
784.6  39851.08  33579.17  84.26
785.9  40095.40  33879.35  84.50
787.1  40531.58  34371.50  84.80
788.4  40834.19  34660.86  84.88
789.6  40796.10  34515.36  84.60
790.9  40479.11  34134.06  84.33
792.1  40128.24  33799.04  84.23
793.4  39739.41  33473.06  84.23
794.6  39507.48  33233.92  84.12
795.8  39314.07  33041.06  84.04
797.1  39097.95  32856.13  84.04
798.3  38940.83  32734.58  84.06
799.5  38821.14  32661.80  84.13
800.8  38733.05  32577.20  84.11
802.0  38591.76  32484.64  84.18
803.2  38469.72  32360.94  84.12
804.5  38377.94  32276.18  84.10
805.7  38264.87  32184.22  84.11
806.9  38181.95  32091.60  84.05
808.1  38074.65  32028.31  84.12
809.4  38033.33  31990.43  84.11
810.6  37951.55  31940.55  84.16
811.8  37942.61  31941.05  84.18
813.0  37965.80  31959.77  84.18
814.2  37975.49  32009.18  84.29
815.4  38039.93  32079.01  84.33
816.6  38032.65  32100.04  84.40
817.9  38050.16  32105.94  84.38
819.1  37997.24  32020.25  84.27
820.3  37865.18  31889.07  84.22
821.5  37787.61  31797.82  84.15
822.7  37714.41  31726.02  84.12
823.9  37704.87  31705.59  84.09
825.1  37688.07  31673.19  84.04
826.3  37716.38  31648.05  83.91
827.5  37726.06  31636.20  83.86
828.7  37779.60  31606.42  83.66
829.9  37796.29  31583.17  83.56
831.0  37849.02  31611.00  83.52
832.2  37913.75  31631.77  83.43
833.4  37950.44  31648.63  83.39
834.6  37978.13  31685.47  83.43
835.8  38031.53  31729.79  83.43
837.0  38073.26  31797.00  83.52
838.1  38178.69  31915.78  83.60
839.3  38239.24  31976.91  83.62
840.5  38296.24  32076.06  83.76
841.7  38381.58  32198.27  83.89
842.9  38485.06  32337.86  84.03
844.0  38543.94  32444.37  84.18
845.2  38626.85  32585.46  84.36
846.4  38724.98  32676.62  84.38
847.5  38888.12  32865.96  84.51
848.7  39002.30  32995.32  84.60
849.9  39141.74  33108.39  84.59
851.0  39173.78  33127.31  84.57
852.2  39245.07  33166.79  84.51
853.3  39202.67  33123.10  84.49
854.5  39188.19  33121.06  84.52
855.6  39170.88  33125.20  84.57
856.8  39193.80  33146.89  84.57
857.9  39192.81  33171.51  84.64
859.1  39326.60  33242.13  84.53
860.2  39300.24  33250.93  84.61
861.4  39344.78  33292.26  84.62
862.5  39384.29  33310.80  84.58
863.7  39467.66  33370.85  84.55
864.8  39454.45  33377.90  84.60
865.9  39398.65  33334.45  84.61
867.1  39448.45  33352.80  84.55
868.2  39441.53  33335.85  84.52
869.3  39465.67  33331.35  84.46
870.5  39438.89  33276.29  84.37
871.6  39473.54  33258.95  84.26
872.7  39541.37  33313.62  84.25
873.9  39548.50  33313.51  84.23
875.0  39546.05  33269.92  84.13
876.1  39583.15  33242.96  83.98
877.2  39616.79  33231.73  83.88
878.3  39601.98  33202.10  83.84
879.4  39662.11  33188.40  83.68
880.5  39702.60  33184.03  83.58
881.7  39698.10  33117.81  83.42
882.8  39775.46  33100.84  83.22
883.9  39785.32  33064.23  83.11
885.0  39766.55  32946.55  82.85
886.1  39735.85  32849.85  82.67
887.2  39664.66  32656.37  82.33
888.3  39567.00  32500.70  82.14
889.4  39535.02  32382.90  81.91
890.5  39459.91  32269.12  81.78
891.6  39428.33  32182.36  81.62
892.7  39429.01  32122.25  81.47
893.8  39492.50  32095.19  81.27
894.9  39505.51  32073.69  81.19
896.0  39527.49  31993.99  80.94
897.0  39487.40  31954.30  80.92
898.1  39490.45  31912.47  80.81
899.2  39536.22  31865.59  80.60
900.3  39503.73  31754.48  80.38
901.4  39454.09  31688.03  80.32
902.4  39461.49  31638.01  80.17
903.5  39418.10  31519.58  79.96
904.6  39431.18  31478.11  79.83
905.7  39454.64  31437.38  79.68
906.7  39397.52  31364.17  79.61
907.8  39514.80  31338.08  79.31
908.9  39443.33  31208.72  79.12
909.9  39411.21  31136.84  79.01
911.0  39357.50  31043.68  78.88
912.1  39280.99  30905.83  78.68
913.1  39233.48  30770.60  78.43
914.2  39173.92  30625.68  78.18
915.2  39170.79  30561.74  78.02
916.3  39094.50  30450.83  77.89
917.3  39076.47  30379.56  77.74
918.4  39031.30  30208.56  77.40
919.4  39022.48  30072.65  77.06
920.5  39026.74  29961.13  76.77
921.5  39018.63  29874.65  76.57
922.6  38959.72  29716.40  76.27
923.6  39026.05  29619.85  75.90
924.7  39022.50  29516.28  75.64
925.7  39030.84  29378.83  75.27
926.7  39009.32  29261.01  75.01
927.8  39032.57  29123.70  74.61
928.8  39142.62  29066.03  74.26
929.9  39330.10  28969.82  73.66
930.9  39447.46  28959.73  73.41
931.9  39602.61  28935.04  73.06
932.9  39864.58  28964.54  72.66
934.0  39909.81  28834.03  72.25
935.0  39942.68  28686.46  71.82
936.0  39929.50  28519.21  71.42
937.0  39883.94  28337.46  71.05
938.1  39848.52  28139.23  70.62
939.1  39753.89  27962.32  70.34
940.1  39867.76  27843.09  69.84
941.1  39995.43  27846.30  69.62
942.1  40229.45  27807.77  69.12
943.1  40393.76  27741.70  68.68
944.1  40552.56  27720.77  68.36
945.2  40570.32  27547.72  67.90
946.2  40685.67  27386.31  67.31
947.2  40740.25  27257.81  66.91
948.2  40874.09  27142.88  66.41
949.2  40954.06  26979.96  65.88
950.2  41026.00  26798.50  65.32
951.2  41012.16  26619.82  64.91
952.2  41170.94  26454.58  64.26
953.2  41257.13  26344.43  63.85
954.2  41395.95  26202.86  63.30
955.2  41401.94  26000.52  62.80
956.2  41391.82  25827.10  62.40
957.2  41524.97  25720.15  61.94
958.2  41486.28  25608.75  61.73
959.2  41625.00  25551.65  61.39
960.1  41647.94  25467.03  61.15
961.1  41725.78  25462.53  61.02
962.1  41752.50  25359.06  60.74
963.1  41720.60  25341.26  60.74
964.1  41837.60  25359.69  60.61
965.1  41932.95  25382.28  60.53
966.1  41961.44  25328.35  60.36
967.0  42058.17  25358.31  60.29
968.0  42094.69  25369.07  60.27
969.0  42115.20  25395.38  60.30
970.0  42092.26  25409.13  60.37
971.0  42266.18  25417.43  60.14
971.9  42275.33  25446.28  60.19
972.9  42388.85  25469.38  60.09
973.9  42492.13  25522.66  60.06
974.9  42580.28  25540.09  59.98
975.8  42630.52  25557.50  59.95
976.8  42806.43  25550.87  59.69
977.8  42848.34  25632.55  59.82
978.8  42868.95  25744.07  60.05
979.7  43050.58  25854.80  60.06
980.7  43264.32  25998.36  60.09
981.7  43347.07  26183.60  60.40
982.6  43545.07  26341.49  60.49
983.6  44003.55  26670.12  60.61
984.6  44377.46  27113.52  61.10
985.5  44900.28  27478.79  61.20
986.5  45688.01  27876.54  61.02
987.5  46285.78  28446.66  61.46
988.4  47161.40  28905.03  61.29
989.4  47812.76  29869.45  62.47
990.4  48753.98  30429.88  62.42
991.3  50274.64  31289.57  62.24
992.3  50864.45  31985.92  62.88
993.2  51610.85  32656.95  63.28
994.2  53891.66  33616.93  62.38
995.2  55394.96  33917.75  61.23
996.1  55625.12  34312.34  61.68
997.1  56348.70  34178.36  60.66
998.0  54473.40  34282.84  62.94
999.0  55283.87  33941.17  61.39
1000.0  55127.21  34126.37  61.90
1000.9  55875.58  34705.82  62.11
1001.9  56355.47  34407.92  61.06
1002.8  54776.67  33869.54  61.83
1003.8  57170.04  34752.98  60.79
1004.8  54763.20  34242.21  62.53
961.5  49984.08  27392.95  54.80
965.5  48959.90  27152.56  55.46
969.5  47367.08  26744.68  56.46
973.4  45664.01  26055.09  57.06
977.4  44063.24  25398.38  57.64
981.4  43484.76  25233.79  58.03
985.3  43466.28  25332.38  58.28
989.3  43739.41  25643.51  58.63
993.3  44088.36  25982.83  58.93
997.2  44246.85  26222.52  59.26
1001.2  44240.69  26466.79  59.82
1005.2  44147.66  26750.95  60.59
1009.1  44170.72  27140.61  61.44
1013.1  44298.35  27615.36  62.34
1017.1  44409.64  28101.44  63.28
1021.0  44418.65  28496.64  64.15
1025.0  44431.92  28878.92  65.00
1029.0  44310.95  29159.78  65.81
1032.9  44196.36  29442.92  66.62
1036.9  44214.81  29818.56  67.44
1040.9  44317.48  30253.71  68.27
1044.8  44471.57  30734.74  69.11
1048.8  44586.22  31163.36  69.89
1052.7  44660.98  31519.91  70.58
1056.7  44664.90  31787.21  71.17
1060.7  44652.74  31984.50  71.63
1064.6  44643.90  32132.14  71.97
1068.6  44545.19  32160.40  72.20
1072.5  44448.63  32134.13  72.29
1076.5  44390.31  32086.31  72.28
1080.4  44363.13  32009.52  72.15
1084.4  44428.99  31948.35  71.91
1088.3  44526.89  31846.99  71.52
1092.3  44515.11  31625.08  71.04
1096.2  44485.25  31372.55  70.52
1100.2  44489.30  31148.85  70.01
1104.1  44387.15  30815.54  69.42
1108.1  44344.78  30503.63  68.79
1112.0  44255.25  30149.64  68.13
1116.0  44078.91  29685.96  67.35
1119.9  43920.46  29164.52  66.40
1123.9  43980.05  28660.58  65.17
1127.8  43933.44  27901.44  63.51
1131.8  43891.20  26910.03  61.31
1135.7  43904.71  25765.18  58.68
1139.6  43873.24  24508.82  55.86
1143.6  43814.30  23297.55  53.17
1147.5  43764.96  22274.67  50.90
1151.4  43600.54  21416.18  49.12
1155.4  43567.43  20872.08  47.91
1159.3  43548.37  20534.92  47.15
1163.2  43379.84  20235.80  46.65
1167.2  43333.14  20069.44  46.31
1171.1  43320.14  19962.00  46.08
1175.0  43247.45  19845.38  45.89
1179.0  43203.54  19740.73  45.69
1182.9  43281.26  19684.91  45.48
1186.8  43262.79  19600.80  45.31
1190.7  43059.97  19432.11  45.13
1194.7  42822.73  19263.74  44.98
1198.6  42602.18  19157.99  44.97
1202.5  42456.57  19109.83  45.01
1206.4  42335.53  19090.07  45.09
1210.3  42230.32  19116.30  45.27
1214.2  42126.94  19163.92  45.49
1218.2  41984.08  19202.02  45.74
1222.1  41854.50  19267.92  46.04
1226.0  41760.57  19357.08  46.35
1229.9  41673.90  19435.10  46.64
1233.8  41576.55  19504.04  46.91
1237.7  41528.30  19571.41  47.13
1241.6  41457.25  19631.50  47.35
1245.5  41309.15  19659.66  47.59
1249.4  41175.26  19670.16  47.77
1253.3  41058.30  19675.56  47.92
1257.2  40978.33  19699.46  48.07
1261.1  40873.57  19695.63  48.19
1265.0  40757.89  19657.11  48.23
1268.9  40587.74  19561.80  48.20
1272.8  40626.75  19551.00  48.12
1276.7  40780.33  19575.73  48.00
1280.6  40842.56  19527.94  47.81
1284.5  40748.73  19372.63  47.54
1288.4  40697.88  19206.93  47.19
1292.3  40562.50  18972.25  46.77
1296.2  40411.46  18693.13  46.26
1300.1  40239.63  18369.29  45.65
1303.9  40009.73  17975.92  44.93
1307.8  39785.54  17551.52  44.12
1311.7  39554.21  17099.74  43.23
1315.6  39326.35  16622.66  42.27
1319.5  39086.11  16112.40  41.22
1323.3  38870.69  15596.81  40.12
1327.2  38681.53  15082.09  38.99
1331.1  38474.56  14562.18  37.85
1335.0  38203.08  14032.76  36.73
1338.8  38009.09  13562.57  35.68
1342.7  37876.27  13136.01  34.68
1346.5  37598.34  12670.04  33.70
1350.4  37400.07  12256.91  32.77
1354.3  37094.65  11834.46  31.90
1358.1  36731.71  11414.50  31.08
1362.0  36487.36  11046.43  30.27
1365.8  36370.47  10708.66  29.44
1369.7  36432.94  10383.39  28.50
1373.5  36366.82  9929.71  27.30
