/*** Spectra Vista SIG Data ***/
name= GS1.sig
comm= Averaged Ref/Tar of files: GD5S1,GD5S2,GD5S3
data=
346.4  366.28  171.57  46.84
347.9  400.03  172.77  43.19
349.5  432.12  180.13  41.68
351.1  468.00  183.04  39.11
352.6  496.51  190.60  38.39
354.2  520.33  196.79  37.82
355.7  575.84  211.93  36.80
357.3  598.14  220.53  36.87
358.8  616.87  224.61  36.41
360.4  668.33  232.15  34.74
361.9  686.05  231.24  33.71
363.5  715.01  240.99  33.70
365.1  743.78  242.26  32.57
366.6  778.54  247.20  31.75
368.2  824.27  251.14  30.47
369.7  873.39  255.98  29.31
371.3  928.49  266.91  28.75
372.8  977.74  271.80  27.80
374.4  1016.27  275.46  27.10
375.9  1052.58  289.51  27.51
377.4  1084.71  294.03  27.11
379.0  1129.79  297.03  26.29
380.5  1157.14  299.96  25.92
382.1  1186.43  302.20  25.47
383.6  1234.64  310.34  25.14
385.2  1293.88  317.17  24.51
386.7  1345.63  328.15  24.39
388.3  1410.38  347.12  24.61
389.8  1464.46  360.51  24.62
391.3  1527.57  378.02  24.75
392.9  1567.60  395.27  25.21
394.4  1609.87  415.85  25.83
395.9  1662.63  434.58  26.14
397.5  1749.05  452.63  25.88
399.0  1827.74  463.09  25.34
400.6  1876.29  468.65  24.98
402.1  1904.04  471.97  24.79
403.6  1943.17  481.10  24.76
405.1  1994.81  493.56  24.74
406.7  2061.92  511.02  24.78
408.2  2135.06  529.25  24.79
409.7  2198.56  548.95  24.97
411.3  2272.05  573.75  25.25
412.8  2335.64  595.03  25.48
414.3  2399.77  615.79  25.66
415.8  2475.00  633.33  25.59
417.4  2547.71  648.02  25.44
418.9  2612.23  668.59  25.59
420.4  2658.25  679.62  25.57
421.9  2705.56  690.51  25.52
423.5  2743.63  702.37  25.60
425.0  2788.02  710.51  25.48
426.5  2844.45  724.69  25.48
428.0  2917.63  739.45  25.34
429.5  3009.90  756.82  25.14
431.1  3112.45  789.48  25.37
432.6  3227.88  815.40  25.26
434.1  3329.29  845.72  25.40
435.6  3423.98  871.01  25.44
437.1  3517.80  899.08  25.56
438.6  3607.74  922.50  25.57
440.1  3694.39  944.73  25.57
441.6  3790.73  975.09  25.72
443.1  3873.83  1000.89  25.84
444.7  3959.99  1030.79  26.03
446.2  4024.76  1056.71  26.26
447.7  4101.41  1086.80  26.50
449.2  4174.20  1109.09  26.57
450.7  4238.00  1125.70  26.56
452.2  4313.18  1157.78  26.84
453.7  4393.64  1192.25  27.14
455.2  4491.99  1233.28  27.46
456.7  4618.24  1278.46  27.68
458.2  4761.06  1332.30  27.98
459.7  4899.13  1388.10  28.33
461.2  5044.37  1444.95  28.64
462.7  5165.05  1495.25  28.95
464.2  5287.79  1545.50  29.23
465.7  5408.14  1593.62  29.47
467.2  5518.98  1634.71  29.62
468.7  5631.00  1681.07  29.85
470.2  5705.20  1729.18  30.31
471.7  5821.13  1765.10  30.32
473.2  6011.22  1792.18  29.81
474.6  6153.75  1819.34  29.56
476.1  6204.18  1845.53  29.75
477.6  6220.94  1869.02  30.04
479.1  6250.52  1884.68  30.15
480.6  6293.37  1905.08  30.27
482.1  6374.96  1935.70  30.36
483.6  6474.12  1981.31  30.60
485.1  6599.29  2035.81  30.85
486.6  6739.10  2107.04  31.27
488.0  6898.13  2189.42  31.74
489.5  7058.36  2275.64  32.24
491.0  7224.81  2367.15  32.76
492.5  7392.87  2468.45  33.39
494.0  7557.79  2575.67  34.08
495.4  7702.20  2677.18  34.76
496.9  7844.83  2783.11  35.48
498.4  7990.29  2896.43  36.25
499.9  8131.50  3007.00  36.98
501.4  8263.45  3125.64  37.82
502.8  8392.79  3240.37  38.61
504.3  8499.60  3357.12  39.50
505.8  8611.18  3478.59  40.40
507.2  8674.01  3585.63  41.34
508.7  8728.20  3685.24  42.22
510.2  8764.92  3786.84  43.20
511.6  8789.76  3879.83  44.14
513.1  8840.43  3989.58  45.13
514.6  8904.34  4105.51  46.11
516.0  8958.85  4219.77  47.10
517.5  9056.55  4355.68  48.09
519.0  9171.31  4503.72  49.11
520.5  9287.32  4655.85  50.13
521.9  9437.16  4826.32  51.14
523.4  9612.27  5010.43  52.13
524.8  9785.79  5196.69  53.10
526.3  9984.58  5393.90  54.02
527.8  10184.06  5594.44  54.93
529.2  10366.76  5782.86  55.78
530.7  10567.61  5982.56  56.61
532.1  10746.40  6171.20  57.43
533.6  10959.02  6368.68  58.11
535.0  11168.56  6573.57  58.86
536.5  11376.00  6772.98  59.54
538.0  11592.92  6981.94  60.23
539.4  11785.91  7179.63  60.92
540.9  12037.93  7397.41  61.45
542.3  12246.63  7575.63  61.86
543.8  12400.56  7726.49  62.31
545.2  12445.48  7827.47  62.89
546.6  12442.01  7902.49  63.51
548.1  12455.19  7974.31  64.02
549.5  12460.55  8039.52  64.52
551.0  12456.77  8094.27  64.98
552.4  12484.13  8164.07  65.40
553.9  12491.52  8218.01  65.79
555.3  12509.64  8281.26  66.20
556.8  12569.08  8366.99  66.57
558.2  12630.94  8455.50  66.94
559.6  12713.51  8563.26  67.36
561.1  12831.00  8692.45  67.75
562.5  12959.42  8831.48  68.15
564.0  13129.35  9007.66  68.61
565.4  13288.41  9174.18  69.04
566.8  13487.87  9370.81  69.48
568.3  13678.39  9557.44  69.87
569.7  13879.32  9747.57  70.23
571.1  14074.77  9937.09  70.60
572.6  14269.77  10116.79  70.90
574.0  14463.08  10299.52  71.21
575.4  14650.03  10470.38  71.47
576.9  14818.07  10639.40  71.80
578.3  14977.46  10795.31  72.08
579.7  15131.24  10952.17  72.38
581.1  15254.19  11088.17  72.69
582.6  15387.18  11235.66  73.02
584.0  15508.86  11360.94  73.25
585.4  15681.05  11513.85  73.43
586.8  15909.04  11699.48  73.54
588.3  16162.38  11883.77  73.53
589.7  16371.81  12049.13  73.60
591.1  16519.39  12173.14  73.69
592.5  16589.78  12260.64  73.90
594.0  16627.80  12321.59  74.10
595.4  16637.76  12358.86  74.28
596.8  16651.64  12392.67  74.42
598.2  16659.51  12416.65  74.53
599.6  16659.36  12434.08  74.64
601.0  16705.59  12479.13  74.70
602.4  16752.94  12517.81  74.72
603.9  16822.23  12586.22  74.82
605.3  16905.11  12653.04  74.85
606.7  16973.10  12719.52  74.94
608.1  17114.04  12826.66  74.95
609.5  17255.15  12944.68  75.02
610.9  17434.91  13080.20  75.02
612.3  17598.49  13207.18  75.05
613.7  17818.60  13364.47  75.00
615.1  17967.42  13467.60  74.96
616.5  18122.06  13566.31  74.86
617.9  18356.64  13741.55  74.86
619.3  18578.68  13910.86  74.88
620.7  18848.67  14122.20  74.92
622.1  19119.58  14313.91  74.87
623.5  19414.06  14536.17  74.87
624.9  19741.18  14790.41  74.92
626.3  19952.52  14949.43  74.93
627.7  19741.37  14807.71  75.01
629.1  19544.02  14672.83  75.08
630.5  19457.12  14613.13  75.10
631.9  19461.81  14618.03  75.11
633.3  19457.49  14552.71  74.79
634.7  19533.17  14553.86  74.51
636.1  19566.68  14514.81  74.18
637.5  19597.55  14562.80  74.31
638.9  19677.50  14698.40  74.70
640.2  19731.43  14849.53  75.26
641.6  19754.28  14948.54  75.67
643.0  19715.36  14999.22  76.08
644.4  19707.26  15048.58  76.36
645.8  19650.11  15048.89  76.58
647.2  19716.78  15158.55  76.88
648.5  19765.84  15260.26  77.21
649.9  19671.60  15260.36  77.58
651.3  19608.23  15283.68  77.95
652.7  19503.68  15238.12  78.13
654.1  19390.95  14950.90  77.10
655.5  19238.75  14578.60  75.78
656.8  19118.09  14227.39  74.42
658.2  19225.93  14080.70  73.24
659.6  19449.31  14043.04  72.20
660.9  19643.18  13978.51  71.16
662.3  19825.21  13898.41  70.10
663.7  20008.80  13814.08  69.04
665.0  20165.89  13711.46  67.99
666.4  20328.89  13631.20  67.05
667.8  20535.62  13595.88  66.21
669.1  20711.76  13552.90  65.44
670.5  20914.18  13547.22  64.78
671.9  21055.86  13532.82  64.27
673.2  21237.33  13579.62  63.94
674.6  21400.77  13638.90  63.73
676.0  21596.49  13747.58  63.66
677.3  21793.24  13887.89  63.73
678.7  21992.69  14075.15  64.00
680.0  22269.19  14344.43  64.41
681.4  22542.00  14681.33  65.13
682.8  22829.63  15107.52  66.18
684.1  23112.18  15609.99  67.54
685.5  23364.31  16172.99  69.22
686.8  23617.23  16792.29  71.10
688.2  23841.32  17429.75  73.11
689.5  23927.84  17998.83  75.22
690.9  23997.39  18578.89  77.42
692.2  24047.78  19138.26  79.58
693.6  24110.83  19690.70  81.67
694.9  24095.99  20166.52  83.69
696.2  24121.97  20631.00  85.53
697.6  24149.95  21060.24  87.21
698.9  24174.48  21454.40  88.75
700.3  24215.57  21828.85  90.14
701.6  24264.40  22176.72  91.40
703.0  24323.35  22499.04  92.50
704.3  24329.34  22735.75  93.45
705.6  24327.41  22948.68  94.33
707.0  24334.75  23148.58  95.13
708.3  24282.08  23279.69  95.87
709.6  24223.21  23388.48  96.55
711.0  24124.28  23449.46  97.20
712.3  24015.02  23489.51  97.81
713.6  23977.17  23552.54  98.23
714.9  23907.38  23582.69  98.64
716.3  23880.58  23646.66  99.02
717.6  23876.83  23718.40  99.34
718.9  23805.06  23696.63  99.54
720.2  23675.16  23624.08  99.78
721.6  23576.15  23573.96  99.99
722.9  23446.45  23488.31  100.18
724.2  23274.82  23369.36  100.41
725.5  23133.68  23289.85  100.68
726.8  23009.81  23198.55  100.82
728.1  22933.91  23150.62  100.94
729.5  22856.87  23088.49  101.01
730.8  22796.53  23058.51  101.15
732.1  22719.29  22996.70  101.22
733.4  22660.56  22960.05  101.32
734.7  22602.67  22910.10  101.36
736.0  22569.89  22910.83  101.51
737.3  22520.76  22885.43  101.62
738.6  22554.56  22962.83  101.81
739.9  22633.16  23093.75  102.04
741.2  22698.59  23207.55  102.24
742.5  22841.25  23408.22  102.48
743.8  23091.34  23720.24  102.72
745.1  23491.07  24181.34  102.94
746.4  23957.57  24712.63  103.15
747.7  24466.55  25234.49  103.14
749.0  24948.63  25713.85  103.07
750.3  25229.30  25921.45  102.74
751.6  25175.69  25816.10  102.54
752.9  24925.64  25539.68  102.46
754.2  24630.59  25260.10  102.56
755.4  24314.44  24996.61  102.81
756.7  24210.69  24963.45  103.11
758.0  24235.24  25067.11  103.43
759.3  24394.18  25313.32  103.77
760.6  24621.52  25620.26  104.06
761.9  24823.09  25898.11  104.33
763.1  24955.30  26073.79  104.48
764.4  25125.21  26264.77  104.54
765.7  25257.38  26421.20  104.61
767.0  25349.99  26560.03  104.77
768.2  25431.84  26690.95  104.95
769.5  25509.93  26801.40  105.06
770.8  25646.87  26971.73  105.17
772.0  25674.66  27047.87  105.35
773.3  25762.96  27145.23  105.37
774.6  25839.71  27253.87  105.47
775.8  25921.43  27336.58  105.46
777.1  25948.26  27375.97  105.50
778.4  25918.05  27382.93  105.65
779.6  25945.86  27427.21  105.71
780.9  25904.00  27424.53  105.87
782.1  25811.51  27382.95  106.09
783.4  25819.04  27422.72  106.21
784.6  25849.06  27492.44  106.36
785.9  26028.56  27761.42  106.66
787.1  26416.14  28211.11  106.79
788.4  26716.91  28494.09  106.65
789.6  26732.54  28370.49  106.13
790.9  26499.75  28020.93  105.74
792.1  26215.36  27734.67  105.80
793.4  25939.41  27505.12  106.04
794.6  25766.06  27324.91  106.05
795.8  25608.38  27170.99  106.10
797.1  25427.85  27008.36  106.22
798.3  25301.10  26904.96  106.34
799.5  25235.55  26850.99  106.40
800.8  25155.70  26789.98  106.50
802.0  25074.70  26724.65  106.58
803.2  24986.56  26646.91  106.64
804.5  24925.76  26586.87  106.66
805.7  24855.66  26493.41  106.59
806.9  24776.64  26415.74  106.62
808.1  24708.89  26336.21  106.59
809.4  24677.19  26301.17  106.58
810.6  24617.78  26271.70  106.72
811.8  24606.91  26251.64  106.68
813.0  24601.75  26274.42  106.80
814.2  24620.30  26308.20  106.86
815.4  24684.78  26371.21  106.83
816.6  24715.54  26375.88  106.72
817.9  24752.29  26373.34  106.55
819.1  24717.85  26293.77  106.38
820.3  24615.89  26176.81  106.34
821.5  24558.22  26088.12  106.23
822.7  24525.20  26016.38  106.08
823.9  24512.51  25981.28  105.99
825.1  24512.73  25938.60  105.82
826.3  24527.23  25931.01  105.72
827.5  24554.23  25908.02  105.51
828.7  24585.24  25888.03  105.30
829.9  24620.63  25867.55  105.06
831.0  24677.45  25897.42  104.94
832.2  24735.00  25902.02  104.72
833.4  24800.15  25905.12  104.46
834.6  24827.34  25943.75  104.50
835.8  24886.58  25962.93  104.33
837.0  24941.18  26032.46  104.38
838.1  25036.55  26099.93  104.25
839.3  25073.20  26155.80  104.32
840.5  25138.07  26219.71  104.30
841.7  25214.76  26313.66  104.36
842.9  25311.78  26412.85  104.35
844.0  25352.29  26490.51  104.49
845.2  25454.19  26604.35  104.52
846.4  25527.43  26680.55  104.52
847.5  25656.16  26817.06  104.52
848.7  25745.00  26931.04  104.61
849.9  25879.71  27035.33  104.47
851.0  25913.04  27035.03  104.33
852.2  25966.07  27058.66  104.21
853.3  25941.98  27010.64  104.12
854.5  25934.86  26998.84  104.10
855.6  25916.94  26997.52  104.17
856.8  25944.85  27011.65  104.11
857.9  25943.54  27006.71  104.10
859.1  25996.60  27054.32  104.07
860.2  26027.46  27061.78  103.97
861.4  26023.97  27102.63  104.14
862.5  26059.24  27118.06  104.06
863.7  26115.12  27170.04  104.04
864.8  26101.25  27178.11  104.13
865.9  26082.46  27127.65  104.01
867.1  26099.25  27159.01  104.06
868.2  26099.69  27137.00  103.97
869.3  26128.19  27142.94  103.88
870.5  26099.47  27110.83  103.88
871.6  26087.08  27109.18  103.92
872.7  26136.21  27154.64  103.90
873.9  26148.82  27170.24  103.91
875.0  26142.73  27139.98  103.81
876.1  26142.29  27122.05  103.75
877.2  26184.05  27138.05  103.64
878.3  26169.01  27116.05  103.62
879.4  26191.11  27117.86  103.54
880.5  26214.48  27135.22  103.51
881.7  26220.35  27095.21  103.34
882.8  26271.44  27091.31  103.12
883.9  26272.50  27078.19  103.07
885.0  26275.91  26985.41  102.70
886.1  26278.81  26937.94  102.51
887.2  26194.66  26801.11  102.32
888.3  26154.69  26706.53  102.11
889.4  26083.75  26607.41  102.01
890.5  26060.47  26523.93  101.78
891.6  26043.45  26446.76  101.55
892.7  26025.13  26409.05  101.48
893.8  26046.70  26411.91  101.40
894.9  26070.72  26400.31  101.26
896.0  26059.51  26352.89  101.13
897.0  26054.12  26345.86  101.12
898.1  26079.30  26338.11  100.99
899.2  26095.96  26321.37  100.86
900.3  26052.56  26249.43  100.76
901.4  26029.33  26168.23  100.53
902.4  26018.83  26162.45  100.55
903.5  26017.27  26083.51  100.25
904.6  26012.16  26049.40  100.14
905.7  26050.43  26013.97  99.86
906.7  26024.14  25981.10  99.83
907.8  26076.86  25993.25  99.68
908.9  26057.48  25897.79  99.39
909.9  26017.06  25858.91  99.39
911.0  26009.49  25795.03  99.18
912.1  25979.15  25717.87  98.99
913.1  25944.88  25614.23  98.73
914.2  25856.17  25495.15  98.60
915.2  25844.13  25445.20  98.46
916.3  25883.78  25398.36  98.12
917.3  25847.25  25322.25  97.97
918.4  25819.06  25231.29  97.72
919.4  25792.96  25154.20  97.52
920.5  25804.34  25088.13  97.22
921.5  25824.68  25032.00  96.93
922.6  25820.42  24912.87  96.49
923.6  25802.74  24863.72  96.36
924.7  25837.63  24762.27  95.84
925.7  25830.51  24701.43  95.63
926.7  25889.20  24610.83  95.06
927.8  25949.67  24526.31  94.51
928.8  26061.51  24489.69  93.97
929.9  26114.55  24448.95  93.62
930.9  26214.58  24474.55  93.36
931.9  26363.30  24461.20  92.79
932.9  26568.63  24508.91  92.25
934.0  26604.58  24416.15  91.77
935.0  26610.78  24336.36  91.45
936.0  26639.41  24247.50  91.02
937.0  26632.91  24121.47  90.57
938.1  26589.57  23985.56  90.21
939.1  26594.73  23863.55  89.73
940.1  26647.30  23789.54  89.28
941.1  26757.94  23786.47  88.90
942.1  26950.86  23808.57  88.34
943.1  27064.46  23800.83  87.94
944.1  27200.04  23788.09  87.46
945.2  27250.86  23710.29  87.01
946.2  27341.46  23602.26  86.32
947.2  27385.31  23513.25  85.86
948.2  27528.14  23447.53  85.18
949.2  27562.84  23363.39  84.76
950.2  27601.23  23240.57  84.20
951.2  27696.06  23122.18  83.49
952.2  27776.58  23036.74  82.94
953.2  27874.44  22975.83  82.43
954.2  27994.28  22911.99  81.85
955.2  28013.52  22785.66  81.34
956.2  27975.49  22676.79  81.06
957.2  28074.45  22631.98  80.61
958.2  28163.05  22569.58  80.14
959.2  28188.45  22517.46  79.88
960.1  28244.69  22477.75  79.58
961.1  28322.00  22464.96  79.32
962.1  28304.06  22427.13  79.24
963.1  28357.97  22474.76  79.25
964.1  28464.51  22500.16  79.05
965.1  28543.56  22499.80  78.83
966.1  28584.14  22500.09  78.72
967.0  28655.80  22522.73  78.60
968.0  28697.14  22539.19  78.54
969.0  28718.80  22592.69  78.67
970.0  28760.47  22672.87  78.83
971.0  28834.42  22690.82  78.69
971.9  28848.78  22704.29  78.70
972.9  28890.31  22758.19  78.77
973.9  28948.56  22761.74  78.63
974.9  29046.70  22810.03  78.53
975.8  29063.68  22887.65  78.75
976.8  29052.58  22938.09  78.95
977.8  29165.54  23052.08  79.04
978.8  29197.88  23140.38  79.25
979.7  29189.32  23234.11  79.60
980.7  29306.81  23440.14  79.98
981.7  29477.75  23564.81  79.94
982.6  29574.16  23742.54  80.28
983.6  29987.80  24076.00  80.29
984.6  30188.75  24464.96  81.04
985.5  30563.82  24982.80  81.74
986.5  30946.12  25336.56  81.87
987.5  31666.80  26115.56  82.47
988.4  32276.75  26490.05  82.07
989.4  33081.94  27297.80  82.52
990.4  33865.04  27909.46  82.41
991.3  34680.98  28744.60  82.88
992.3  35996.38  29188.37  81.09
993.2  37249.57  29739.82  79.84
994.2  37192.84  30766.32  82.72
995.2  38468.72  31371.82  81.55
996.1  38815.33  31663.53  81.57
997.1  39248.66  31268.64  79.67
998.0  39056.40  30971.04  79.30
999.0  38843.24  32134.50  82.73
1000.0  39939.10  31701.27  79.37
1000.9  41119.71  31216.87  75.92
1001.9  38921.76  31623.93  81.25
1002.8  38260.04  31277.06  81.75
1003.8  38840.71  31305.32  80.60
1004.8  39018.78  31762.66  81.40
961.5  34611.80  24685.88  71.32
965.5  33947.81  24224.07  71.36
969.5  32673.62  23479.46  71.86
973.4  31329.21  22734.34  72.57
977.4  30182.73  22110.37  73.26
981.4  29653.05  22019.78  74.26
985.3  29580.67  22268.54  75.28
989.3  29694.74  22787.30  76.74
993.3  29811.28  23348.90  78.32
997.2  29873.76  23720.84  79.40
1001.2  29847.48  23961.12  80.28
1005.2  29766.32  24131.77  81.07
1009.1  29802.16  24365.64  81.76
1013.1  29912.80  24698.99  82.57
1017.1  29980.27  25068.34  83.62
1021.0  29997.45  25362.33  84.55
1025.0  29986.05  25618.01  85.43
1029.0  29874.56  25771.79  86.27
1032.9  29757.39  25914.46  87.09
1036.9  29719.10  26129.63  87.92
1040.9  29786.91  26415.35  88.68
1044.8  29914.06  26746.20  89.41
1048.8  30017.23  27055.29  90.13
1052.7  30081.05  27323.90  90.83
1056.7  30106.96  27489.37  91.31
1060.7  30124.55  27614.95  91.67
1064.6  30126.20  27718.13  92.01
1068.6  30068.46  27717.11  92.18
1072.5  30024.99  27671.06  92.16
1076.5  29992.38  27615.46  92.07
1080.4  29983.51  27552.29  91.89
1084.4  30049.89  27517.67  91.57
1088.3  30134.74  27457.69  91.12
1092.3  30115.74  27297.75  90.64
1096.2  30104.84  27120.01  90.09
1100.2  30142.18  26944.28  89.39
1104.1  30082.71  26679.23  88.69
1108.1  30052.27  26468.36  88.07
1112.0  29977.43  26212.73  87.44
1116.0  29868.35  25859.73  86.58
1119.9  29779.89  25482.69  85.57
1123.9  29822.35  25143.05  84.31
1127.8  29798.40  24602.88  82.56
1131.8  29786.58  23925.53  80.32
1135.7  29821.64  23176.89  77.72
1139.6  29831.38  22345.42  74.91
1143.6  29819.95  21515.28  72.15
1147.5  29803.64  20797.10  69.78
1151.4  29713.98  20177.94  67.91
1155.4  29731.43  19819.73  66.66
1159.3  29760.66  19621.07  65.93
1163.2  29674.15  19413.41  65.42
1167.2  29672.28  19314.24  65.09
1171.1  29681.80  19261.96  64.89
1175.0  29651.52  19192.49  64.73
1179.0  29638.87  19137.94  64.57
1182.9  29697.98  19126.63  64.40
1186.8  29706.14  19075.73  64.21
1190.7  29571.10  18938.96  64.05
1194.7  29411.94  18793.19  63.90
1198.6  29289.65  18684.44  63.79
1202.5  29196.66  18627.42  63.80
1206.4  29112.98  18612.19  63.93
1210.3  29056.59  18619.28  64.08
1214.2  29008.58  18632.90  64.23
1218.2  28915.95  18644.09  64.48
1222.1  28833.10  18675.14  64.77
1226.0  28785.60  18723.70  65.05
1229.9  28734.48  18773.66  65.33
1233.8  28673.70  18816.27  65.62
1237.7  28644.25  18867.80  65.87
1241.6  28596.57  18897.70  66.08
1245.5  28494.07  18881.25  66.26
1249.4  28422.55  18870.50  66.39
1253.3  28356.92  18888.78  66.61
1257.2  28323.43  18917.61  66.79
1261.1  28264.79  18884.99  66.81
1265.0  28184.91  18810.22  66.74
1268.9  28067.43  18730.74  66.73
1272.8  28106.70  18762.50  66.75
1276.7  28238.01  18817.75  66.64
1280.6  28297.17  18792.14  66.41
1284.5  28250.81  18660.83  66.05
1288.4  28234.52  18527.19  65.62
1292.3  28165.50  18337.00  65.10
1296.2  28076.33  18119.57  64.54
1300.1  27971.71  17870.29  63.89
1303.9  27830.79  17560.97  63.10
1307.8  27679.51  17229.25  62.25
1311.7  27513.83  16879.50  61.35
1315.6  27356.90  16513.95  60.36
1319.5  27190.78  16120.03  59.28
1323.3  27036.43  15719.40  58.14
1327.2  26898.46  15326.06  56.98
