/*** Spectra Vista SIG Data ***/
name= MDT.sig
comm= Averaged Ref/Tar of files: MDT1,MDT2,MDT3
data=
346.4  509.60  325.93  63.96
347.9  549.06  348.26  63.43
349.5  608.40  373.36  61.37
351.1  655.20  400.40  61.11
352.6  708.40  424.83  59.97
354.2  752.68  455.97  60.58
355.7  818.30  487.17  59.53
357.3  873.81  521.28  59.66
358.8  891.23  539.40  60.52
360.4  967.31  581.56  60.12
361.9  1009.93  608.28  60.23
363.5  1059.53  631.33  59.59
365.1  1102.67  650.73  59.01
366.6  1156.59  695.10  60.10
368.2  1218.77  731.94  60.06
369.7  1306.00  761.84  58.33
371.3  1379.56  812.15  58.87
372.8  1457.48  857.67  58.85
374.4  1528.58  896.68  58.66
375.9  1575.56  927.90  58.89
377.4  1632.76  959.49  58.76
379.0  1683.54  990.82  58.85
380.5  1741.87  1020.70  58.60
382.1  1805.51  1052.97  58.32
383.6  1862.60  1089.59  58.50
385.2  1949.75  1137.58  58.35
386.7  2036.04  1184.98  58.20
388.3  2135.96  1247.33  58.40
389.8  2212.47  1306.62  59.06
391.3  2314.34  1356.30  58.60
392.9  2392.65  1413.02  59.06
394.4  2474.90  1451.11  58.63
395.9  2552.82  1506.15  59.00
397.5  2664.75  1585.93  59.52
399.0  2774.82  1652.12  59.54
400.6  2852.64  1687.62  59.16
402.1  2910.24  1707.96  58.69
403.6  2965.71  1742.18  58.74
405.1  3036.77  1778.49  58.57
406.7  3133.76  1841.28  58.76
408.2  3234.33  1905.25  58.91
409.7  3330.88  1962.99  58.93
411.3  3437.91  2024.96  58.90
412.8  3528.93  2078.49  58.90
414.3  3634.54  2135.04  58.74
415.8  3740.00  2198.33  58.78
417.4  3868.37  2260.98  58.45
418.9  3954.39  2313.26  58.50
420.4  4037.85  2354.58  58.31
421.9  4106.74  2393.38  58.28
423.5  4196.00  2426.07  57.82
425.0  4263.51  2467.76  57.88
426.5  4364.50  2514.78  57.62
428.0  4488.82  2584.10  57.57
429.5  4615.58  2662.96  57.70
431.1  4756.23  2748.35  57.78
432.6  4917.76  2847.22  57.90
434.1  5064.68  2935.63  57.96
435.6  5199.35  3020.54  58.09
437.1  5333.25  3108.30  58.28
438.6  5454.84  3183.96  58.37
440.1  5584.70  3263.19  58.43
441.6  5717.14  3348.85  58.58
443.1  5852.25  3430.35  58.62
444.7  5982.11  3507.89  58.64
446.2  6104.50  3584.11  58.71
447.7  6213.60  3651.93  58.77
449.2  6315.84  3723.84  58.96
450.7  6414.72  3784.21  58.99
452.2  6543.45  3857.95  58.96
453.7  6682.65  3936.71  58.91
455.2  6842.54  4040.55  59.05
456.7  7029.44  4169.44  59.31
458.2  7231.16  4307.59  59.57
459.7  7428.75  4456.67  59.99
461.2  7633.63  4601.36  60.28
462.7  7815.14  4733.95  60.57
464.2  8000.76  4871.46  60.89
465.7  8191.53  5010.42  61.17
467.2  8352.58  5141.68  61.56
468.7  8552.00  5273.33  61.66
470.2  8711.17  5387.71  61.85
471.7  8854.00  5543.25  62.61
473.2  9050.37  5758.57  63.63
474.6  9252.88  5908.57  63.86
476.1  9378.88  5976.99  63.73
477.6  9464.51  6040.85  63.83
479.1  9567.20  6132.25  64.10
480.6  9658.16  6222.78  64.43
482.1  9797.74  6353.23  64.84
483.6  9963.22  6509.90  65.34
485.1  10140.49  6685.96  65.93
486.6  10356.19  6893.69  66.57
488.0  10562.50  7113.17  67.34
489.5  10784.97  7347.18  68.12
491.0  10998.86  7583.05  68.94
492.5  11224.98  7840.80  69.85
494.0  11462.99  8097.61  70.64
495.4  11663.85  8333.60  71.45
496.9  11870.36  8577.12  72.26
498.4  12074.30  8821.87  73.06
499.9  12278.41  9076.42  73.92
501.4  12476.75  9315.98  74.67
502.8  12664.51  9554.96  75.45
504.3  12846.60  9781.80  76.14
505.8  13033.73  10006.17  76.77
507.2  13172.68  10187.73  77.34
508.7  13289.99  10342.67  77.82
510.2  13412.81  10489.92  78.21
511.6  13494.72  10610.04  78.62
513.1  13630.43  10760.60  78.95
514.6  13795.53  10923.15  79.18
516.0  13946.28  11068.73  79.37
517.5  14135.83  11255.38  79.62
519.0  14365.19  11469.04  79.84
520.5  14579.60  11677.89  80.10
521.9  14828.55  11921.21  80.39
523.4  15093.49  12183.14  80.72
524.8  15349.14  12448.07  81.10
526.3  15633.70  12729.11  81.42
527.8  15915.89  13013.77  81.77
529.2  16178.21  13271.95  82.04
530.7  16455.24  13550.86  82.35
532.1  16698.15  13799.31  82.64
533.6  16994.07  14082.06  82.86
535.0  17295.55  14365.89  83.06
536.5  17581.25  14635.94  83.25
538.0  17895.84  14924.24  83.40
539.4  18160.64  15191.71  83.65
540.9  18488.86  15510.59  83.89
542.3  18738.28  15788.21  84.26
543.8  18940.29  15981.29  84.38
545.2  19020.35  16048.28  84.37
546.6  19057.19  16072.78  84.34
548.1  19121.11  16111.04  84.26
549.5  19166.91  16135.96  84.19
551.0  19217.70  16149.61  84.04
552.4  19311.21  16196.56  83.87
553.9  19371.38  16223.96  83.75
555.3  19461.20  16275.29  83.63
556.8  19596.88  16370.07  83.53
558.2  19743.75  16461.00  83.37
559.6  19902.71  16582.29  83.32
561.1  20117.50  16749.42  83.26
562.5  20332.52  16932.02  83.28
564.0  20611.34  17165.55  83.28
565.4  20865.50  17383.99  83.31
566.8  21177.73  17657.27  83.38
568.3  21463.05  17914.45  83.47
569.7  21776.78  18189.26  83.53
571.1  22080.65  18456.45  83.59
572.6  22373.82  18721.80  83.68
574.0  22675.95  18983.25  83.72
575.4  22958.44  19228.50  83.75
576.9  23231.09  19463.48  83.78
578.3  23477.03  19676.21  83.81
579.7  23721.74  19876.94  83.79
581.1  23920.49  20043.89  83.79
582.6  24132.47  20214.21  83.76
584.0  24305.80  20365.43  83.79
585.4  24549.94  20579.14  83.83
586.8  24845.17  20848.28  83.91
588.3  25201.80  21148.14  83.92
589.7  25517.70  21407.10  83.89
591.1  25735.55  21575.13  83.83
592.5  25883.00  21655.90  83.67
594.0  25998.42  21694.58  83.45
595.4  26057.54  21700.45  83.28
596.8  26115.38  21700.97  83.10
598.2  26174.55  21694.32  82.88
599.6  26202.06  21672.90  82.71
601.0  26298.70  21721.28  82.59
602.4  26372.18  21759.90  82.51
603.9  26501.77  21841.60  82.42
605.3  26625.41  21939.55  82.40
606.7  26749.80  22029.60  82.35
608.1  26941.18  22201.84  82.41
609.5  27151.69  22388.08  82.46
610.9  27387.74  22619.53  82.59
612.3  27589.20  22829.98  82.75
613.7  27871.80  23125.64  82.97
615.1  28061.64  23329.08  83.14
616.5  28235.16  23536.79  83.36
617.9  28534.12  23848.41  83.58
619.3  28808.15  24145.09  83.81
620.7  29149.14  24503.32  84.06
622.1  29527.66  24885.41  84.28
623.5  29951.83  25326.08  84.56
624.9  30436.35  25839.54  84.90
626.3  30757.12  26185.73  85.14
627.7  30461.43  25963.55  85.23
629.1  30188.34  25748.80  85.29
630.5  30083.03  25658.96  85.29
631.9  30076.12  25682.42  85.39
633.3  30078.24  25697.45  85.44
634.7  30183.54  25812.84  85.52
636.1  30268.81  25874.05  85.48
637.5  30374.19  25954.09  85.45
638.9  30520.15  26063.38  85.40
640.2  30643.60  26155.51  85.35
641.6  30733.56  26183.82  85.20
643.0  30777.50  26158.51  84.99
644.4  30869.16  26138.24  84.67
645.8  30855.38  26061.26  84.46
647.2  31023.20  26150.71  84.29
648.5  31185.15  26197.84  84.01
649.9  31117.13  26069.10  83.78
651.3  31099.80  25955.60  83.46
652.7  31059.00  25772.85  82.98
654.1  30961.56  25591.38  82.66
655.5  30829.51  25441.50  82.52
656.8  30685.81  25291.07  82.42
658.2  30861.69  25455.11  82.48
659.6  31181.89  25758.61  82.61
660.9  31452.29  26001.22  82.67
662.3  31767.46  26234.10  82.58
663.7  32102.70  26460.70  82.43
665.0  32334.98  26667.80  82.47
666.4  32575.38  26851.88  82.43
667.8  32873.84  27106.82  82.46
669.1  33084.01  27308.93  82.54
670.5  33327.47  27555.37  82.68
671.9  33513.12  27703.20  82.66
673.2  33742.50  27915.62  82.73
674.6  33950.66  28100.76  82.77
676.0  34219.05  28335.22  82.81
677.3  34494.18  28563.93  82.81
678.7  34767.13  28812.88  82.87
680.0  35103.31  29148.84  83.04
681.4  35420.13  29510.49  83.32
682.8  35763.00  29854.83  83.48
684.1  36073.44  30203.94  83.73
685.5  36318.59  30514.15  84.02
686.8  36607.26  30815.60  84.18
688.2  36844.31  31089.39  84.38
689.5  36898.97  31197.78  84.55
690.9  36950.15  31264.28  84.61
692.2  37008.15  31328.45  84.65
693.6  37024.93  31381.38  84.76
694.9  37005.38  31356.88  84.74
696.2  37027.13  31376.03  84.74
697.6  37047.86  31411.83  84.79
698.9  37049.76  31440.64  84.86
700.3  37075.62  31478.41  84.90
701.6  37124.24  31537.27  84.95
703.0  37178.40  31598.63  84.99
704.3  37172.20  31610.37  85.04
705.6  37157.22  31600.47  85.05
707.0  37168.46  31609.53  85.04
708.3  37076.04  31533.03  85.05
709.6  36967.81  31425.89  85.01
711.0  36867.73  31295.81  84.89
712.3  36770.31  31155.02  84.73
713.6  36755.88  31067.96  84.53
714.9  36684.64  30964.05  84.41
716.3  36701.44  30921.62  84.25
717.6  36734.04  30883.60  84.07
718.9  36680.73  30760.40  83.86
720.2  36496.25  30568.56  83.76
721.6  36394.28  30403.32  83.54
722.9  36240.12  30200.10  83.33
724.2  36067.30  29941.91  83.02
725.5  35963.70  29727.50  82.66
726.8  35833.96  29515.60  82.37
728.1  35810.80  29360.70  81.99
729.5  35779.10  29195.64  81.60
730.8  35779.13  29046.70  81.18
732.1  35704.25  28870.53  80.86
733.4  35690.92  28737.27  80.52
734.7  35685.89  28606.44  80.16
736.0  35729.66  28535.05  79.86
737.3  35717.44  28424.85  79.58
738.6  35830.21  28442.53  79.38
739.9  36014.88  28535.12  79.23
741.2  36161.58  28610.40  79.12
742.5  36363.94  28780.44  79.15
743.8  36737.66  29106.00  79.23
745.1  37309.08  29600.03  79.34
746.4  37926.98  30194.87  79.61
747.7  38536.99  30807.24  79.94
749.0  39118.92  31404.03  80.28
750.3  39493.02  31737.23  80.36
751.6  39440.80  31675.81  80.31
752.9  39084.79  31334.35  80.17
754.2  38731.25  30950.71  79.91
755.4  38386.91  30545.44  79.57
756.7  38244.09  30415.96  79.53
758.0  38261.36  30422.18  79.51
759.3  38489.95  30606.01  79.52
760.6  38786.44  30872.89  79.60
761.9  39062.28  31112.65  79.65
763.1  39197.21  31270.83  79.78
764.4  39371.54  31447.48  79.87
765.7  39490.75  31572.67  79.95
767.0  39577.16  31686.39  80.06
768.2  39644.64  31787.84  80.18
769.5  39697.68  31839.71  80.21
770.8  39836.32  31990.25  80.30
772.0  39856.44  32029.08  80.36
773.3  39898.95  32094.73  80.44
774.6  39978.84  32174.77  80.48
775.8  40054.79  32259.61  80.54
777.1  40085.96  32298.44  80.57
778.4  40059.57  32261.40  80.53
779.6  39999.54  32258.75  80.65
780.9  39948.00  32206.67  80.62
782.1  39837.20  32083.15  80.54
783.4  39802.88  32090.24  80.62
784.6  39851.08  32129.96  80.63
785.9  40095.40  32355.81  80.70
787.1  40531.58  32826.97  80.99
788.4  40834.19  33227.78  81.37
789.6  40796.10  33244.79  81.49
790.9  40479.11  32927.84  81.35
792.1  40128.24  32577.25  81.18
793.4  39739.41  32248.74  81.15
794.6  39507.48  32031.14  81.08
795.8  39314.07  31850.18  81.01
797.1  39097.95  31652.90  80.96
798.3  38940.83  31514.45  80.93
799.5  38821.14  31455.50  81.03
800.8  38733.05  31357.47  80.96
802.0  38591.76  31282.92  81.06
803.2  38469.72  31180.47  81.05
804.5  38377.94  31102.74  81.04
805.7  38264.87  31019.83  81.07
806.9  38181.95  30929.89  81.01
808.1  38074.65  30859.87  81.05
809.4  38033.33  30824.75  81.05
810.6  37951.55  30741.32  81.00
811.8  37942.61  30713.48  80.95
813.0  37965.80  30721.28  80.92
814.2  37975.49  30729.21  80.92
815.4  38039.93  30811.48  81.00
816.6  38032.65  30833.23  81.07
817.9  38050.16  30847.25  81.07
819.1  37997.24  30784.92  81.02
820.3  37865.18  30636.44  80.91
821.5  37787.61  30529.70  80.79
822.7  37714.41  30432.15  80.69
823.9  37704.87  30379.34  80.57
825.1  37688.07  30315.04  80.44
826.3  37716.38  30263.65  80.24
827.5  37726.06  30201.46  80.05
828.7  37779.60  30141.60  79.78
829.9  37796.29  30073.33  79.57
831.0  37849.02  30040.58  79.37
832.2  37913.75  30009.27  79.15
833.4  37950.44  29997.77  79.04
834.6  37978.13  29982.81  78.95
835.8  38031.53  29988.00  78.85
837.0  38073.26  30008.24  78.82
838.1  38178.69  30083.68  78.80
839.3  38239.24  30101.47  78.72
840.5  38296.24  30158.45  78.75
841.7  38381.58  30224.75  78.75
842.9  38485.06  30281.13  78.68
844.0  38543.94  30337.18  78.71
845.2  38626.85  30432.17  78.79
846.4  38724.98  30492.52  78.74
847.5  38888.12  30630.96  78.77
848.7  39002.30  30733.34  78.80
849.9  39141.74  30850.23  78.82
851.0  39173.78  30890.31  78.85
852.2  39245.07  30904.83  78.75
853.3  39202.67  30881.19  78.77
854.5  39188.19  30867.56  78.77
855.6  39170.88  30829.38  78.70
856.8  39193.80  30829.13  78.66
857.9  39192.81  30826.04  78.65
859.1  39326.60  30869.80  78.50
860.2  39300.24  30851.55  78.50
861.4  39344.78  30842.05  78.39
862.5  39384.29  30845.33  78.32
863.7  39467.66  30878.42  78.24
864.8  39454.45  30856.00  78.21
865.9  39398.65  30811.34  78.20
867.1  39448.45  30786.36  78.04
868.2  39441.53  30748.59  77.96
869.3  39465.67  30743.34  77.90
870.5  39438.89  30643.70  77.70
871.6  39473.54  30597.62  77.51
872.7  39541.37  30602.14  77.39
873.9  39548.50  30570.52  77.30
875.0  39546.05  30511.87  77.16
876.1  39583.15  30476.22  76.99
877.2  39616.79  30426.66  76.80
878.3  39601.98  30370.55  76.69
879.4  39662.11  30356.75  76.54
880.5  39702.60  30351.72  76.45
881.7  39698.10  30281.98  76.28
882.8  39775.46  30244.39  76.04
883.9  39785.32  30207.54  75.93
885.0  39766.55  30122.14  75.75
886.1  39735.85  30048.69  75.62
887.2  39664.66  29888.43  75.35
888.3  39567.00  29771.17  75.24
889.4  39535.02  29649.77  75.00
890.5  39459.91  29515.39  74.80
891.6  39428.33  29434.40  74.65
892.7  39429.01  29350.09  74.44
893.8  39492.50  29283.99  74.15
894.9  39505.51  29212.96  73.95
896.0  39527.49  29144.68  73.73
897.0  39487.40  29119.31  73.74
898.1  39490.45  29069.88  73.61
899.2  39536.22  29016.27  73.39
900.3  39503.73  28871.12  73.08
901.4  39454.09  28750.73  72.87
902.4  39461.49  28700.41  72.73
903.5  39418.10  28579.54  72.50
904.6  39431.18  28512.02  72.31
905.7  39454.64  28458.77  72.13
906.7  39397.52  28378.29  72.03
907.8  39514.80  28312.49  71.65
908.9  39443.33  28196.95  71.49
909.9  39411.21  28116.00  71.34
911.0  39357.50  27967.72  71.06
912.1  39280.99  27819.94  70.82
913.1  39233.48  27693.64  70.59
914.2  39173.92  27502.49  70.21
915.2  39170.79  27392.58  69.93
916.3  39094.50  27285.75  69.79
917.3  39076.47  27162.25  69.51
918.4  39031.30  26987.49  69.14
919.4  39022.48  26814.29  68.71
920.5  39026.74  26685.83  68.38
921.5  39018.63  26568.69  68.09
922.6  38959.72  26327.74  67.58
923.6  39026.05  26201.84  67.14
924.7  39022.50  26032.92  66.71
925.7  39030.84  25854.04  66.24
926.7  39009.32  25684.43  65.84
927.8  39032.57  25541.47  65.44
928.8  39142.62  25397.57  64.88
929.9  39330.10  25266.68  64.24
930.9  39447.46  25137.53  63.72
931.9  39602.61  25010.15  63.15
932.9  39864.58  24978.86  62.66
934.0  39909.81  24805.95  62.16
935.0  39942.68  24566.51  61.50
936.0  39929.50  24337.53  60.95
937.0  39883.94  24071.52  60.35
938.1  39848.52  23806.39  59.74
939.1  39753.89  23558.31  59.26
940.1  39867.76  23369.50  58.62
941.1  39995.43  23247.62  58.13
942.1  40229.45  23095.38  57.41
943.1  40393.76  22946.87  56.81
944.1  40552.56  22792.06  56.20
945.2  40570.32  22563.66  55.62
946.2  40685.67  22356.89  54.95
947.2  40740.25  22077.67  54.19
948.2  40874.09  21901.04  53.58
949.2  40954.06  21653.40  52.87
950.2  41026.00  21393.47  52.15
951.2  41012.16  21105.84  51.46
952.2  41170.94  20842.12  50.62
953.2  41257.13  20653.21  50.06
954.2  41395.95  20436.68  49.37
955.2  41401.94  20196.57  48.78
956.2  41391.82  19954.91  48.21
957.2  41524.97  19775.32  47.62
958.2  41486.28  19574.44  47.18
959.2  41625.00  19474.95  46.79
960.1  41647.94  19425.49  46.64
961.1  41725.78  19333.93  46.34
962.1  41752.50  19285.00  46.19
963.1  41720.60  19239.76  46.12
964.1  41837.60  19175.57  45.83
965.1  41932.95  19163.32  45.70
966.1  41961.44  19147.90  45.63
967.0  42058.17  19130.84  45.49
968.0  42094.69  19096.79  45.37
969.0  42115.20  19117.33  45.39
970.0  42092.26  19100.07  45.38
971.0  42266.18  19093.83  45.18
971.9  42275.33  19082.94  45.14
972.9  42388.85  19137.27  45.15
973.9  42492.13  19076.53  44.89
974.9  42580.28  19175.94  45.03
975.8  42630.52  19158.19  44.94
976.8  42806.43  19278.39  45.04
977.8  42848.34  19348.12  45.15
978.8  42868.95  19408.50  45.27
979.7  43050.58  19508.44  45.32
980.7  43264.32  19577.64  45.25
981.7  43347.07  19753.28  45.57
982.6  43545.07  19988.16  45.90
983.6  44003.55  20134.80  45.76
984.6  44377.46  20488.10  46.17
985.5  44900.28  20880.12  46.50
986.5  45688.01  21368.50  46.77
987.5  46285.78  21905.55  47.33
988.4  47161.40  22513.70  47.74
989.4  47812.76  23219.78  48.56
990.4  48753.98  24133.71  49.50
991.3  50274.64  25165.72  50.06
992.3  50864.45  26019.12  51.15
993.2  51610.85  26927.40  52.17
994.2  53891.66  28168.73  52.27
995.2  55394.96  28350.28  51.18
996.1  55625.12  29442.60  52.93
997.1  56348.70  29857.21  52.99
998.0  54473.40  30148.80  55.35
999.0  55283.87  30833.71  55.77
1000.0  55127.21  30751.23  55.78
1000.9  55875.58  31348.04  56.10
1001.9  56355.47  30272.48  53.72
1002.8  54776.67  31778.83  58.02
1003.8  57170.04  31130.76  54.45
1004.8  54763.20  31336.72  57.22
961.5  49984.08  18014.90  36.04
965.5  48959.90  18054.32  36.88
969.5  47367.08  17894.23  37.78
973.4  45664.01  17640.53  38.63
977.4  44063.24  17562.29  39.86
981.4  43484.76  17696.18  40.70
985.3  43466.28  17902.25  41.19
989.3  43739.41  18233.78  41.69
993.3  44088.36  18578.99  42.14
997.2  44246.85  18859.03  42.62
1001.2  44240.69  19149.61  43.29
1005.2  44147.66  19470.04  44.10
1009.1  44170.72  19876.51  45.00
1013.1  44298.35  20356.49  45.95
1017.1  44409.64  20865.56  46.98
1021.0  44418.65  21329.03  48.02
1025.0  44431.92  21801.70  49.07
1029.0  44310.95  22203.31  50.11
1032.9  44196.36  22606.31  51.15
1036.9  44214.81  23070.65  52.18
1040.9  44317.48  23571.93  53.19
1044.8  44471.57  24092.72  54.18
1048.8  44586.22  24558.36  55.08
1052.7  44660.98  24946.16  55.86
1056.7  44664.90  25236.92  56.50
1060.7  44652.74  25455.17  57.01
1064.6  44643.90  25604.34  57.35
1068.6  44545.19  25611.51  57.50
1072.5  44448.63  25555.94  57.50
1076.5  44390.31  25465.81  57.37
1080.4  44363.13  25299.89  57.03
1084.4  44428.99  25126.12  56.55
1088.3  44526.89  24901.23  55.92
1092.3  44515.11  24538.29  55.12
1096.2  44485.25  24140.73  54.27
1100.2  44489.30  23754.65  53.39
1104.1  44387.15  23286.67  52.46
1108.1  44344.78  22837.30  51.50
1112.0  44255.25  22361.25  50.53
1116.0  44078.91  21795.61  49.45
1119.9  43920.46  21151.66  48.16
1123.9  43980.05  20449.58  46.50
1127.8  43933.44  19473.92  44.33
1131.8  43891.20  18234.66  41.55
1135.7  43904.71  16823.24  38.32
1139.6  43873.24  15352.29  34.99
1143.6  43814.30  13995.61  31.94
1147.5  43764.96  12872.20  29.41
1151.4  43600.54  11990.24  27.50
1155.4  43567.43  11416.81  26.20
1159.3  43548.37  11042.53  25.36
1163.2  43379.84  10740.07  24.76
1167.2  43333.14  10548.02  24.34
1171.1  43320.14  10405.81  24.02
1175.0  43247.45  10270.01  23.75
1179.0  43203.54  10145.73  23.48
1182.9  43281.26  10047.89  23.22
1186.8  43262.79  9935.74  22.97
1190.7  43059.97  9797.86  22.75
1194.7  42822.73  9676.49  22.60
1198.6  42602.18  9594.59  22.52
1202.5  42456.57  9544.55  22.48
1206.4  42335.53  9515.24  22.48
1210.3  42230.32  9501.28  22.50
1214.2  42126.94  9502.25  22.56
1218.2  41984.08  9513.56  22.66
1222.1  41854.50  9533.53  22.78
1226.0  41760.57  9566.16  22.91
1229.9  41673.90  9599.36  23.03
1233.8  41576.55  9634.09  23.17
1237.7  41528.30  9673.58  23.29
1241.6  41457.25  9705.99  23.41
1245.5  41309.15  9714.53  23.52
1249.4  41175.26  9722.77  23.61
1253.3  41058.30  9735.35  23.71
1257.2  40978.33  9748.20  23.79
1261.1  40873.57  9733.61  23.81
1265.0  40757.89  9695.30  23.79
1268.9  40587.74  9623.58  23.71
1272.8  40626.75  9575.05  23.57
1276.7  40780.33  9525.56  23.36
1280.6  40842.56  9422.01  23.07
1284.5  40748.73  9253.25  22.71
1288.4  40697.88  9065.61  22.28
1292.3  40562.50  8839.42  21.79
1296.2  40411.46  8577.15  21.22
1300.1  40239.63  8288.41  20.60
1303.9  40009.73  7962.48  19.90
1307.8  39785.54  7619.51  19.15
1311.7  39554.21  7255.66  18.34
1315.6  39326.35  6878.82  17.49
1319.5  39086.11  6493.15  16.61
1323.3  38870.69  6116.97  15.74
1327.2  38681.53  5751.23  14.87
1331.1  38474.56  5394.38  14.02
1335.0  38203.08  5050.36  13.22
