/*** Spectra Vista SIG Data ***/
name= GS.sig
comm= Averaged Ref/Tar of files: GD2S10,GD2S11,GD2S12
data=
346.4  509.60  236.76  46.46
347.9  549.06  232.17  42.29
349.5  608.40  242.32  39.83
351.1  655.20  241.28  36.83
352.6  708.40  254.06  35.86
354.2  752.68  266.16  35.36
355.7  818.30  280.63  34.29
357.3  873.81  299.36  34.26
358.8  891.23  298.24  33.46
360.4  967.31  315.40  32.61
361.9  1009.93  318.07  31.49
363.5  1059.53  319.70  30.17
365.1  1102.67  328.26  29.77
366.6  1156.59  330.29  28.56
368.2  1218.77  335.75  27.55
369.7  1306.00  345.00  26.42
371.3  1379.56  356.69  25.86
372.8  1457.48  371.84  25.51
374.4  1528.58  374.91  24.53
375.9  1575.56  388.37  24.65
377.4  1632.76  388.13  23.77
379.0  1683.54  395.69  23.50
380.5  1741.87  406.23  23.32
382.1  1805.51  404.84  22.42
383.6  1862.60  399.74  21.46
385.2  1949.75  422.58  21.67
386.7  2036.04  439.52  21.59
388.3  2135.96  455.63  21.33
389.8  2212.47  473.06  21.38
391.3  2314.34  494.80  21.38
392.9  2392.65  515.90  21.56
394.4  2474.90  532.17  21.50
395.9  2552.82  567.29  22.22
397.5  2664.75  591.09  22.18
399.0  2774.82  597.40  21.53
400.6  2852.64  604.68  21.20
402.1  2910.24  605.44  20.80
403.6  2965.71  609.77  20.56
405.1  3036.77  618.48  20.37
406.7  3133.76  634.67  20.25
408.2  3234.33  653.40  20.20
409.7  3330.88  674.99  20.26
411.3  3437.91  693.09  20.16
412.8  3528.93  725.22  20.55
414.3  3634.54  748.94  20.61
415.8  3740.00  770.83  20.61
417.4  3868.37  793.58  20.51
418.9  3954.39  816.35  20.64
420.4  4037.85  830.83  20.58
421.9  4106.74  838.13  20.41
423.5  4196.00  844.49  20.13
425.0  4263.51  854.05  20.03
426.5  4364.50  865.02  19.82
428.0  4488.82  883.95  19.69
429.5  4615.58  900.60  19.51
431.1  4756.23  928.16  19.51
432.6  4917.76  955.48  19.43
434.1  5064.68  990.74  19.56
435.6  5199.35  1017.17  19.56
437.1  5333.25  1047.15  19.63
438.6  5454.84  1076.17  19.73
440.1  5584.70  1108.22  19.84
441.6  5717.14  1148.10  20.08
443.1  5852.25  1190.03  20.33
444.7  5982.11  1237.80  20.69
446.2  6104.50  1284.05  21.03
447.7  6213.60  1334.77  21.48
449.2  6315.84  1380.24  21.85
450.7  6414.72  1424.80  22.21
452.2  6543.45  1473.75  22.52
453.7  6682.65  1518.56  22.72
455.2  6842.54  1573.62  23.00
456.7  7029.44  1636.80  23.28
458.2  7231.16  1699.74  23.51
459.7  7428.75  1764.00  23.75
461.2  7633.63  1827.96  23.95
462.7  7815.14  1881.29  24.07
464.2  8000.76  1931.26  24.14
465.7  8191.53  1988.90  24.28
467.2  8352.58  2036.65  24.38
468.7  8552.00  2101.33  24.57
470.2  8711.17  2154.65  24.73
471.7  8854.00  2211.92  24.98
473.2  9050.37  2273.78  25.12
474.6  9252.88  2323.76  25.11
476.1  9378.88  2364.51  25.21
477.6  9464.51  2397.29  25.33
479.1  9567.20  2432.11  25.42
480.6  9658.16  2459.79  25.47
482.1  9797.74  2505.69  25.57
483.6  9963.22  2560.22  25.70
485.1  10140.49  2632.00  25.96
486.6  10356.19  2718.38  26.25
488.0  10562.50  2812.33  26.63
489.5  10784.97  2926.92  27.14
491.0  10998.86  3043.86  27.67
492.5  11224.98  3183.84  28.36
494.0  11462.99  3327.23  29.03
495.4  11663.85  3474.90  29.79
496.9  11870.36  3642.83  30.69
498.4  12074.30  3820.54  31.64
499.9  12278.41  4016.66  32.71
501.4  12476.75  4217.67  33.80
502.8  12664.51  4437.16  35.04
504.3  12846.60  4665.60  36.32
505.8  13033.73  4909.27  37.67
507.2  13172.68  5140.36  39.02
508.7  13289.99  5376.17  40.45
510.2  13412.81  5612.99  41.85
511.6  13494.72  5842.88  43.30
513.1  13630.43  6099.32  44.75
514.6  13795.53  6369.29  46.17
516.0  13946.28  6636.25  47.58
517.5  14135.83  6934.42  49.06
519.0  14365.19  7251.57  50.48
520.5  14579.60  7571.88  51.93
521.9  14828.55  7912.00  53.36
523.4  15093.49  8267.42  54.77
524.8  15349.14  8613.42  56.12
526.3  15633.70  8970.44  57.38
527.8  15915.89  9319.82  58.56
529.2  16178.21  9647.05  59.63
530.7  16455.24  9974.56  60.62
532.1  16698.15  10279.24  61.56
533.6  16994.07  10594.88  62.34
535.0  17295.55  10911.29  63.09
536.5  17581.25  11214.25  63.79
538.0  17895.84  11515.95  64.35
539.4  18160.64  11804.77  65.00
540.9  18488.86  12116.84  65.54
542.3  18738.28  12398.58  66.17
543.8  18940.29  12618.79  66.62
545.2  19020.35  12748.53  67.03
546.6  19057.19  12830.08  67.32
548.1  19121.11  12911.86  67.53
549.5  19166.91  12977.05  67.71
551.0  19217.70  13035.35  67.83
552.4  19311.21  13111.06  67.89
553.9  19371.38  13148.74  67.88
555.3  19461.20  13196.43  67.81
556.8  19596.88  13273.01  67.73
558.2  19743.75  13341.94  67.58
559.6  19902.71  13432.62  67.49
561.1  20117.50  13547.63  67.34
562.5  20332.52  13670.93  67.24
564.0  20611.34  13834.41  67.12
565.4  20865.50  13971.66  66.96
566.8  21177.73  14138.37  66.76
568.3  21463.05  14278.30  66.53
569.7  21776.78  14412.36  66.18
571.1  22080.65  14528.73  65.80
572.6  22373.82  14639.40  65.43
574.0  22675.95  14741.10  65.01
575.4  22958.44  14834.25  64.61
576.9  23231.09  14916.25  64.21
578.3  23477.03  14984.02  63.82
579.7  23721.74  15047.76  63.43
581.1  23920.49  15085.10  63.06
582.6  24132.47  15133.02  62.71
584.0  24305.80  15165.77  62.40
585.4  24549.94  15244.57  62.10
586.8  24845.17  15360.32  61.82
588.3  25201.80  15507.18  61.53
589.7  25517.70  15633.54  61.27
591.1  25735.55  15699.46  61.00
592.5  25883.00  15713.82  60.71
594.0  25998.42  15701.32  60.39
595.4  26057.54  15671.29  60.14
596.8  26115.38  15634.19  59.87
598.2  26174.55  15593.60  59.58
599.6  26202.06  15539.49  59.31
601.0  26298.70  15524.57  59.03
602.4  26372.18  15493.22  58.75
603.9  26501.77  15481.89  58.42
605.3  26625.41  15467.40  58.09
606.7  26749.80  15432.00  57.69
608.1  26941.18  15440.11  57.31
609.5  27151.69  15452.46  56.91
610.9  27387.74  15479.56  56.52
612.3  27589.20  15492.23  56.15
613.7  27871.80  15537.91  55.75
615.1  28061.64  15514.20  55.29
616.5  28235.16  15501.63  54.90
617.9  28534.12  15580.57  54.60
619.3  28808.15  15665.34  54.38
620.7  29149.14  15813.00  54.25
622.1  29527.66  15965.54  54.07
623.5  29951.83  16154.14  53.93
624.9  30436.35  16388.05  53.84
626.3  30757.12  16518.68  53.71
627.7  30461.43  16293.78  53.49
629.1  30188.34  16065.07  53.22
630.5  30083.03  15897.54  52.85
631.9  30076.12  15805.58  52.55
633.3  30078.24  15690.34  52.17
634.7  30183.54  15653.11  51.86
636.1  30268.81  15565.94  51.43
637.5  30374.19  15526.42  51.12
638.9  30520.15  15513.94  50.83
640.2  30643.60  15457.17  50.44
641.6  30733.56  15330.12  49.88
643.0  30777.50  15141.74  49.20
644.4  30869.16  14933.63  48.38
645.8  30855.38  14703.77  47.65
647.2  31023.20  14574.65  46.98
648.5  31185.15  14440.18  46.30
649.9  31117.13  14226.42  45.72
651.3  31099.80  14042.85  45.15
652.7  31059.00  13822.70  44.50
654.1  30961.56  13407.82  43.30
655.5  30829.51  12937.97  41.97
656.8  30685.81  12494.62  40.72
658.2  30861.69  12209.31  39.56
659.6  31181.89  11995.82  38.47
660.9  31452.29  11747.54  37.35
662.3  31767.46  11479.19  36.14
663.7  32102.70  11199.30  34.89
665.0  32334.98  10928.96  33.80
666.4  32575.38  10685.69  32.80
667.8  32873.84  10497.63  31.93
669.1  33084.01  10326.57  31.21
670.5  33327.47  10221.35  30.67
671.9  33513.12  10124.52  30.21
673.2  33742.50  10094.12  29.92
674.6  33950.66  10109.23  29.78
676.0  34219.05  10184.96  29.76
677.3  34494.18  10316.48  29.91
678.7  34767.13  10524.42  30.27
680.0  35103.31  10846.65  30.90
681.4  35420.13  11312.95  31.94
682.8  35763.00  11931.62  33.36
684.1  36073.44  12738.96  35.31
685.5  36318.59  13715.07  37.76
686.8  36607.26  14870.70  40.62
688.2  36844.31  16176.16  43.90
689.5  36898.97  17539.17  47.53
690.9  36950.15  18998.41  51.42
692.2  37008.15  20485.85  55.35
693.6  37024.93  22000.47  59.42
694.9  37005.38  23445.56  63.36
696.2  37027.13  24872.78  67.17
697.6  37047.86  26229.50  70.80
698.9  37049.76  27514.08  74.26
700.3  37075.62  28718.52  77.46
701.6  37124.24  29838.30  80.37
703.0  37178.40  30864.50  83.02
704.3  37172.20  31745.73  85.40
705.6  37157.22  32553.72  87.61
707.0  37168.46  33289.70  89.56
708.3  37076.04  33890.59  91.41
709.6  36967.81  34427.21  93.13
711.0  36867.73  34852.44  94.53
712.3  36770.31  35223.78  95.79
713.6  36755.88  35623.00  96.92
714.9  36684.64  35943.02  97.98
716.3  36701.44  36301.11  98.91
717.6  36734.04  36652.77  99.78
718.9  36680.73  36872.85  100.52
720.2  36496.25  36965.81  101.29
721.6  36394.28  37074.01  101.87
722.9  36240.12  37137.46  102.48
724.2  36067.30  37117.67  102.91
725.5  35963.70  37124.19  103.23
726.8  35833.96  37112.36  103.57
728.1  35810.80  37149.87  103.74
729.5  35779.10  37162.52  103.87
730.8  35779.13  37194.41  103.96
732.1  35704.25  37180.30  104.13
733.4  35690.92  37195.53  104.22
734.7  35685.89  37198.53  104.24
736.0  35729.66  37254.04  104.27
737.3  35717.44  37260.80  104.32
738.6  35830.21  37416.78  104.43
739.9  36014.88  37669.87  104.60
741.2  36161.58  37866.92  104.72
742.5  36363.94  38206.06  105.07
743.8  36737.66  38732.92  105.43
745.1  37309.08  39477.44  105.81
746.4  37926.98  40347.58  106.38
747.7  38536.99  41195.52  106.90
749.0  39118.92  41993.15  107.35
750.3  39493.02  42399.97  107.36
751.6  39440.80  42301.16  107.25
752.9  39084.79  41885.50  107.17
754.2  38731.25  41448.09  107.01
755.4  38386.91  41015.07  106.85
756.7  38244.09  40922.54  107.00
758.0  38261.36  41043.73  107.27
759.3  38489.95  41389.14  107.53
760.6  38786.44  41817.16  107.81
761.9  39062.28  42217.19  108.08
763.1  39197.21  42461.01  108.33
764.4  39371.54  42745.90  108.57
765.7  39490.75  42973.67  108.82
767.0  39577.16  43161.47  109.06
768.2  39644.64  43335.04  109.31
769.5  39697.68  43464.91  109.49
770.8  39836.32  43699.57  109.70
772.0  39856.44  43776.03  109.83
773.3  39898.95  43890.05  110.00
774.6  39978.84  44034.50  110.14
775.8  40054.79  44168.53  110.27
777.1  40085.96  44229.41  110.34
778.4  40059.57  44219.71  110.38
779.6  39999.54  44258.35  110.65
780.9  39948.00  44222.67  110.70
782.1  39837.20  44117.39  110.74
783.4  39802.88  44161.17  110.95
784.6  39851.08  44228.09  110.98
785.9  40095.40  44617.84  111.28
787.1  40531.58  45292.43  111.75
788.4  40834.19  45783.05  112.12
789.6  40796.10  45635.02  111.86
790.9  40479.11  45122.36  111.47
792.1  40128.24  44648.75  111.27
793.4  39739.41  44239.57  111.32
794.6  39507.48  43949.01  111.24
795.8  39314.07  43680.24  111.11
797.1  39097.95  43427.43  111.07
798.3  38940.83  43275.65  111.13
799.5  38821.14  43188.37  111.25
800.8  38733.05  43083.40  111.23
802.0  38591.76  42983.69  111.38
803.2  38469.72  42846.59  111.38
804.5  38377.94  42742.15  111.37
805.7  38264.87  42615.52  111.37
806.9  38181.95  42494.28  111.29
808.1  38074.65  42418.92  111.41
809.4  38033.33  42369.66  111.40
810.6  37951.55  42301.35  111.46
811.8  37942.61  42303.25  111.49
813.0  37965.80  42344.46  111.53
814.2  37975.49  42408.60  111.67
815.4  38039.93  42536.34  111.82
816.6  38032.65  42563.28  111.91
817.9  38050.16  42597.45  111.95
819.1  37997.24  42491.54  111.83
820.3  37865.18  42320.73  111.77
821.5  37787.61  42201.28  111.68
822.7  37714.41  42118.50  111.68
823.9  37704.87  42084.01  111.61
825.1  37688.07  42053.28  111.58
826.3  37716.38  42037.81  111.46
827.5  37726.06  42035.57  111.42
828.7  37779.60  42023.44  111.23
829.9  37796.29  41993.84  111.11
831.0  37849.02  42024.34  111.03
832.2  37913.75  42074.00  110.97
833.4  37950.44  42111.33  110.96
834.6  37978.13  42157.81  111.01
835.8  38031.53  42216.30  111.00
837.0  38073.26  42322.69  111.16
838.1  38178.69  42467.87  111.23
839.3  38239.24  42542.70  111.25
840.5  38296.24  42664.22  111.41
841.7  38381.58  42808.82  111.53
842.9  38485.06  42967.46  111.65
844.0  38543.94  43111.27  111.85
845.2  38626.85  43297.27  112.09
846.4  38724.98  43434.88  112.16
847.5  38888.12  43648.62  112.24
848.7  39002.30  43853.95  112.44
849.9  39141.74  44019.66  112.46
851.0  39173.78  44066.62  112.49
852.2  39245.07  44098.43  112.37
853.3  39202.67  44067.60  112.41
854.5  39188.19  44077.98  112.48
855.6  39170.88  44067.24  112.50
856.8  39193.80  44098.34  112.51
857.9  39192.81  44100.85  112.52
859.1  39326.60  44220.47  112.44
860.2  39300.24  44232.13  112.55
861.4  39344.78  44277.48  112.54
862.5  39384.29  44339.35  112.58
863.7  39467.66  44414.50  112.53
864.8  39454.45  44404.27  112.55
865.9  39398.65  44340.07  112.54
867.1  39448.45  44383.21  112.51
868.2  39441.53  44373.17  112.50
869.3  39465.67  44383.01  112.46
870.5  39438.89  44297.82  112.32
871.6  39473.54  44294.94  112.21
872.7  39541.37  44357.26  112.18
873.9  39548.50  44331.60  112.09
875.0  39546.05  44303.41  112.03
876.1  39583.15  44312.48  111.95
877.2  39616.79  44311.06  111.85
878.3  39601.98  44290.71  111.84
879.4  39662.11  44278.26  111.64
880.5  39702.60  44311.80  111.61
881.7  39698.10  44255.47  111.48
882.8  39775.46  44266.74  111.29
883.9  39785.32  44225.38  111.16
885.0  39766.55  44111.11  110.93
886.1  39735.85  44006.79  110.75
887.2  39664.66  43807.43  110.44
888.3  39567.00  43649.60  110.32
889.4  39535.02  43484.92  109.99
890.5  39459.91  43341.07  109.84
891.6  39428.33  43244.84  109.68
892.7  39429.01  43180.70  109.52
893.8  39492.50  43174.95  109.32
894.9  39505.51  43145.34  109.21
896.0  39527.49  43100.60  109.04
897.0  39487.40  43072.69  109.08
898.1  39490.45  43028.99  108.96
899.2  39536.22  42992.02  108.74
900.3  39503.73  42868.48  108.52
901.4  39454.09  42747.43  108.35
902.4  39461.49  42687.60  108.18
903.5  39418.10  42596.77  108.06
904.6  39431.18  42553.21  107.92
905.7  39454.64  42521.85  107.77
906.7  39397.52  42445.39  107.74
907.8  39514.80  42442.90  107.41
908.9  39443.33  42306.76  107.26
909.9  39411.21  42213.05  107.11
911.0  39357.50  42106.87  106.99
912.1  39280.99  41969.23  106.84
913.1  39233.48  41815.45  106.58
914.2  39173.92  41635.94  106.28
915.2  39170.79  41558.40  106.10
916.3  39094.50  41439.50  106.00
917.3  39076.47  41342.80  105.80
918.4  39031.30  41178.23  105.50
919.4  39022.48  41054.90  105.21
920.5  39026.74  40910.24  104.83
921.5  39018.63  40847.36  104.69
922.6  38959.72  40648.43  104.33
923.6  39026.05  40547.93  103.90
924.7  39022.50  40416.42  103.57
925.7  39030.84  40279.74  103.20
926.7  39009.32  40168.48  102.97
927.8  39032.57  40037.38  102.57
928.8  39142.62  39996.79  102.18
929.9  39330.10  39925.50  101.51
930.9  39447.46  39949.84  101.27
931.9  39602.61  39933.21  100.83
932.9  39864.58  40008.04  100.36
934.0  39909.81  39886.37  99.94
935.0  39942.68  39765.94  99.56
936.0  39929.50  39554.40  99.06
937.0  39883.94  39332.80  98.62
938.1  39848.52  39107.93  98.14
939.1  39753.89  38928.69  97.92
940.1  39867.76  38799.44  97.32
941.1  39995.43  38818.49  97.06
942.1  40229.45  38854.73  96.58
943.1  40393.76  38804.23  96.06
944.1  40552.56  38812.51  95.71
945.2  40570.32  38630.34  95.22
946.2  40685.67  38522.10  94.68
947.2  40740.25  38350.59  94.13
948.2  40874.09  38276.96  93.65
949.2  40954.06  38071.86  92.96
950.2  41026.00  37883.48  92.34
951.2  41012.16  37751.56  92.05
952.2  41170.94  37568.12  91.25
953.2  41257.13  37461.67  90.80
954.2  41395.95  37325.70  90.17
955.2  41401.94  37151.65  89.73
956.2  41391.82  36951.02  89.27
957.2  41524.97  36841.90  88.72
958.2  41486.28  36773.41  88.64
959.2  41625.00  36735.45  88.25
960.1  41647.94  36678.10  88.07
961.1  41725.78  36648.59  87.83
962.1  41752.50  36604.69  87.67
963.1  41720.60  36594.46  87.71
964.1  41837.60  36645.25  87.59
965.1  41932.95  36740.88  87.62
966.1  41961.44  36735.12  87.54
967.0  42058.17  36764.65  87.41
968.0  42094.69  36800.81  87.42
969.0  42115.20  36850.80  87.50
970.0  42092.26  36912.58  87.69
971.0  42266.18  36888.92  87.28
971.9  42275.33  37024.37  87.58
972.9  42388.85  37061.56  87.43
973.9  42492.13  37177.40  87.49
974.9  42580.28  37238.67  87.46
975.8  42630.52  37341.91  87.59
976.8  42806.43  37446.88  87.48
977.8  42848.34  37591.85  87.73
978.8  42868.95  37716.05  87.98
979.7  43050.58  37904.56  88.05
980.7  43264.32  38134.64  88.14
981.7  43347.07  38492.08  88.80
982.6  43545.07  38792.08  89.08
983.6  44003.55  39179.77  89.04
984.6  44377.46  39748.52  89.57
985.5  44900.28  40499.64  90.20
986.5  45688.01  40971.66  89.68
987.5  46285.78  41916.89  90.56
988.4  47161.40  42822.27  90.80
989.4  47812.76  43942.80  91.91
990.4  48753.98  45056.07  92.42
991.3  50274.64  46468.54  92.43
992.3  50864.45  47082.22  92.56
993.2  51610.85  48618.92  94.20
994.2  53891.66  49506.11  91.86
995.2  55394.96  50545.56  91.25
996.1  55625.12  50531.24  90.84
997.1  56348.70  50811.54  90.17
998.0  54473.40  51047.40  93.71
999.0  55283.87  51068.33  92.37
1000.0  55127.21  50627.03  91.84
1000.9  55875.58  52071.84  93.19
1001.9  56355.47  50814.52  90.17
1002.8  54776.67  50595.24  92.37
1003.8  57170.04  51060.26  89.31
1004.8  54763.20  51112.32  93.33
961.5  49984.08  38221.22  76.47
965.5  48959.90  37842.99  77.29
969.5  47367.08  36905.51  77.91
973.4  45664.01  35821.98  78.45
977.4  44063.24  35095.05  79.65
981.4  43484.76  34990.60  80.47
985.3  43466.28  35218.83  81.03
989.3  43739.41  35663.23  81.54
993.3  44088.36  36126.72  81.94
997.2  44246.85  36463.56  82.41
1001.2  44240.69  36760.45  83.09
1005.2  44147.66  37062.64  83.95
1009.1  44170.72  37517.91  84.94
1013.1  44298.35  38093.05  85.99
1017.1  44409.64  38663.33  87.06
1021.0  44418.65  39133.12  88.10
1025.0  44431.92  39563.47  89.04
1029.0  44310.95  39859.82  89.95
1032.9  44196.36  40172.21  90.89
1036.9  44214.81  40590.45  91.80
1040.9  44317.48  41100.96  92.74
1044.8  44471.57  41668.27  93.70
1048.8  44586.22  42177.70  94.60
1052.7  44660.98  42599.95  95.39
1056.7  44664.90  42894.55  96.04
1060.7  44652.74  43114.49  96.56
1064.6  44643.90  43272.71  96.93
1068.6  44545.19  43296.70  97.20
1072.5  44448.63  43253.00  97.31
1076.5  44390.31  43189.38  97.29
1080.4  44363.13  43105.71  97.17
1084.4  44428.99  43049.19  96.89
1088.3  44526.89  42949.27  96.46
1092.3  44515.11  42681.05  95.88
1096.2  44485.25  42386.72  95.28
1100.2  44489.30  42142.24  94.72
1104.1  44387.15  41758.80  94.08
1108.1  44344.78  41412.98  93.39
1112.0  44255.25  41005.86  92.66
1116.0  44078.91  40458.86  91.79
1119.9  43920.46  39844.42  90.72
1123.9  43980.05  39291.73  89.34
1127.8  43933.44  38438.40  87.49
1131.8  43891.20  37334.19  85.06
1135.7  43904.71  36072.77  82.16
1139.6  43873.24  34678.80  79.04
1143.6  43814.30  33311.63  76.03
1147.5  43764.96  32141.77  73.44
1151.4  43600.54  31157.56  71.46
1155.4  43567.43  30564.75  70.16
1159.3  43548.37  30198.19  69.34
1163.2  43379.84  29857.04  68.83
1167.2  43333.14  29692.34  68.52
1171.1  43320.14  29594.15  68.31
1175.0  43247.45  29467.13  68.14
1179.0  43203.54  29357.72  67.95
1182.9  43281.26  29324.24  67.75
1186.8  43262.79  29232.18  67.57
1190.7  43059.97  29021.10  67.40
1194.7  42822.73  28808.10  67.27
1198.6  42602.18  28657.86  67.27
1202.5  42456.57  28583.00  67.32
1206.4  42335.53  28550.30  67.44
1210.3  42230.32  28558.44  67.63
1214.2  42126.94  28594.32  67.88
1218.2  41984.08  28627.02  68.19
1222.1  41854.50  28675.90  68.51
1226.0  41760.57  28749.04  68.84
1229.9  41673.90  28818.22  69.15
1233.8  41576.55  28878.26  69.46
1237.7  41528.30  28959.03  69.73
1241.6  41457.25  29012.25  69.98
1245.5  41309.15  29010.66  70.23
1249.4  41175.26  29015.56  70.47
1253.3  41058.30  29018.02  70.68
1257.2  40978.33  29029.75  70.84
1261.1  40873.57  28987.96  70.92
1265.0  40757.89  28913.99  70.94
1268.9  40587.74  28785.63  70.92
1272.8  40626.75  28789.75  70.86
1276.7  40780.33  28847.06  70.74
1280.6  40842.56  28793.36  70.50
1284.5  40748.73  28590.34  70.16
1288.4  40697.88  28388.46  69.75
1292.3  40562.50  28089.42  69.25
1296.2  40411.46  27737.98  68.64
1300.1  40239.63  27330.77  67.92
1303.9  40009.73  26836.14  67.07
1307.8  39785.54  26303.33  66.11
1311.7  39554.21  25735.54  65.06
1315.6  39326.35  25143.29  63.93
