/*** Spectra Vista SIG Data ***/
name= RS4.sig
comm= Averaged Ref/Tar of files: RD4S10,RD4S11,RD4S12
data=
346.4  300.98  84.51  28.08
347.9  318.46  79.91  25.09
349.5  343.20  87.36  25.45
351.1  374.40  80.70  21.56
352.6  409.54  90.66  22.14
354.2  435.24  91.19  20.95
355.7  456.30  96.09  21.06
357.3  495.85  104.49  21.07
358.8  506.78  100.66  19.86
360.4  548.73  104.12  18.97
361.9  565.91  102.16  18.05
363.5  593.82  107.57  18.12
365.1  620.68  103.10  16.61
366.6  647.34  111.40  17.21
368.2  683.25  101.17  14.81
369.7  726.46  103.17  14.20
371.3  772.09  102.73  13.31
372.8  813.40  109.78  13.50
374.4  856.07  115.26  13.46
375.9  883.77  106.80  12.08
377.4  909.07  109.28  12.02
379.0  945.20  109.90  11.63
380.5  966.34  110.79  11.46
382.1  1004.70  109.93  10.94
383.6  1031.94  106.60  10.33
385.2  1082.13  107.80  9.96
386.7  1134.44  104.33  9.20
388.3  1183.47  107.97  9.12
389.8  1236.62  111.63  9.03
391.3  1283.89  117.34  9.14
392.9  1324.35  115.32  8.71
394.4  1356.15  117.12  8.64
395.9  1406.72  130.21  9.26
397.5  1480.96  130.49  8.81
399.0  1545.00  130.60  8.45
400.6  1586.22  122.26  7.71
402.1  1624.11  125.56  7.73
403.6  1645.88  116.36  7.07
405.1  1688.62  118.21  7.00
406.7  1751.68  118.27  6.75
408.2  1815.41  122.96  6.77
409.7  1871.52  123.65  6.61
411.3  1932.39  123.93  6.41
412.8  1975.40  133.04  6.73
414.3  2044.89  129.23  6.32
415.8  2106.25  139.33  6.62
417.4  2169.48  135.61  6.25
418.9  2222.61  141.34  6.36
420.4  2266.93  143.57  6.33
421.9  2296.58  139.71  6.08
423.5  2335.00  137.92  5.91
425.0  2376.73  143.24  6.03
426.5  2428.43  143.62  5.91
428.0  2489.68  142.31  5.72
429.5  2574.41  141.94  5.51
431.1  2658.69  143.71  5.41
432.6  2748.21  148.16  5.39
434.1  2843.23  151.95  5.34
435.6  2926.69  155.31  5.31
437.1  3007.88  157.04  5.22
438.6  3080.14  159.30  5.17
440.1  3160.11  160.72  5.09
441.6  3238.04  165.81  5.12
443.1  3312.90  171.18  5.17
444.7  3389.72  173.44  5.12
446.2  3441.68  175.14  5.09
447.7  3501.62  177.20  5.06
449.2  3564.00  180.58  5.07
450.7  3621.28  179.43  4.95
452.2  3682.41  177.64  4.82
453.7  3758.53  176.57  4.70
455.2  3840.40  179.26  4.67
456.7  3952.96  184.21  4.66
458.2  4072.55  187.33  4.60
459.7  4195.63  191.57  4.57
461.2  4317.19  195.09  4.52
462.7  4419.51  198.57  4.49
464.2  4528.34  206.18  4.55
465.7  4636.49  208.03  4.49
467.2  4730.69  214.32  4.53
468.7  4831.00  216.27  4.48
470.2  4904.47  222.71  4.54
471.7  4994.63  233.07  4.67
473.2  5152.65  236.57  4.59
474.6  5277.65  238.62  4.52
476.1  5315.90  234.33  4.41
477.6  5339.08  230.47  4.32
479.1  5368.13  224.60  4.18
480.6  5404.66  227.82  4.22
482.1  5475.21  225.13  4.11
483.6  5562.12  227.17  4.08
485.1  5668.27  227.92  4.02
486.6  5791.79  229.77  3.97
488.0  5923.94  235.08  3.97
489.5  6066.75  239.67  3.95
491.0  6201.68  245.96  3.97
492.5  6345.54  249.48  3.93
494.0  6492.59  254.41  3.92
495.4  6616.50  258.28  3.90
496.9  6746.80  264.31  3.92
498.4  6868.17  267.42  3.89
499.9  6989.37  273.19  3.91
501.4  7101.28  278.73  3.93
502.8  7211.42  285.49  3.96
504.3  7308.90  288.00  3.94
505.8  7405.94  292.64  3.95
507.2  7465.75  296.59  3.97
508.7  7504.76  300.64  4.01
510.2  7549.77  300.95  3.99
511.6  7573.93  303.36  4.01
513.1  7619.32  304.44  4.00
514.6  7684.06  309.01  4.02
516.0  7736.05  310.15  4.01
517.5  7828.25  314.40  4.02
519.0  7931.31  316.76  3.99
520.5  8033.54  319.91  3.98
521.9  8170.54  322.29  3.94
523.4  8322.71  332.61  4.00
524.8  8476.58  334.75  3.95
526.3  8648.70  347.98  4.02
527.8  8824.59  351.24  3.98
529.2  8983.24  360.13  4.01
530.7  9161.81  368.55  4.02
532.1  9325.79  379.50  4.07
533.6  9502.17  385.10  4.05
535.0  9689.01  390.62  4.03
536.5  9867.79  399.11  4.04
538.0  10049.16  410.45  4.08
539.4  10231.78  422.36  4.13
540.9  10443.93  432.79  4.14
542.3  10618.63  444.17  4.18
543.8  10743.19  448.96  4.18
545.2  10787.72  452.31  4.19
546.6  10787.25  454.38  4.21
548.1  10798.67  454.64  4.21
549.5  10797.77  456.39  4.23
551.0  10799.56  460.40  4.26
552.4  10821.09  466.56  4.31
553.9  10825.03  471.84  4.36
555.3  10846.78  473.85  4.37
556.8  10905.15  481.84  4.42
558.2  10950.19  486.90  4.45
559.6  11027.13  498.84  4.52
561.1  11132.88  510.90  4.59
562.5  11245.54  522.63  4.65
564.0  11402.49  539.54  4.73
565.4  11543.72  556.46  4.82
566.8  11723.98  576.50  4.92
568.3  11891.25  598.39  5.03
569.7  12076.06  625.20  5.18
571.1  12249.63  649.01  5.30
572.6  12426.21  679.97  5.47
574.0  12599.40  709.94  5.63
575.4  12769.31  741.60  5.81
576.9  12924.45  780.78  6.04
578.3  13072.88  818.44  6.26
579.7  13214.09  859.23  6.50
581.1  13332.32  904.67  6.79
582.6  13457.72  950.04  7.06
584.0  13568.00  1000.92  7.38
585.4  13711.91  1057.30  7.71
586.8  13919.40  1122.41  8.06
588.3  14140.62  1192.78  8.44
589.7  14327.82  1260.48  8.80
591.1  14447.26  1326.35  9.18
592.5  14518.46  1392.19  9.59
594.0  14547.66  1458.09  10.02
595.4  14566.76  1525.71  10.47
596.8  14575.28  1593.59  10.93
598.2  14586.43  1669.15  11.44
599.6  14584.19  1747.63  11.98
601.0  14621.32  1834.48  12.55
602.4  14656.48  1924.70  13.13
603.9  14720.65  2018.75  13.71
605.3  14787.56  2121.76  14.35
606.7  14850.90  2223.60  14.97
608.1  14956.71  2346.25  15.69
609.5  15087.13  2466.00  16.35
610.9  15240.09  2604.29  17.09
612.3  15378.24  2740.11  17.82
613.7  15565.24  2894.49  18.60
615.1  15698.61  3044.31  19.39
616.5  15834.13  3193.31  20.17
617.9  16040.22  3370.59  21.01
619.3  16231.37  3545.98  21.85
620.7  16465.73  3741.20  22.72
622.1  16702.31  3918.85  23.46
623.5  16967.59  4086.98  24.09
624.9  17268.83  4265.70  24.70
626.3  17464.11  4430.42  25.37
627.7  17297.90  4526.05  26.17
629.1  17131.07  4632.66  27.04
630.5  17065.89  4774.21  27.98
631.9  17068.07  4933.11  28.90
633.3  17072.86  5085.26  29.79
634.7  17143.21  5246.27  30.60
636.1  17175.19  5384.13  31.35
637.5  17214.12  5509.35  32.00
638.9  17282.65  5629.30  32.57
640.2  17345.48  5736.45  33.07
641.6  17368.65  5819.74  33.51
643.0  17347.86  5876.14  33.87
644.4  17346.99  5934.81  34.21
645.8  17303.92  5973.24  34.52
647.2  17371.51  6050.84  34.83
648.5  17405.34  6142.23  35.29
649.9  17326.73  6208.05  35.83
651.3  17269.88  6294.08  36.45
652.7  17194.65  6365.14  37.02
654.1  17110.53  6319.90  36.94
655.5  17000.34  6223.15  36.61
656.8  16892.62  6134.61  36.32
658.2  16993.27  6128.97  36.07
659.6  17201.86  6147.31  35.74
660.9  17374.35  6155.31  35.43
662.3  17542.46  6154.97  35.09
663.7  17706.15  6137.32  34.66
665.0  17850.15  6109.50  34.23
666.4  17993.38  6084.32  33.81
667.8  18172.37  6086.09  33.49
669.1  18340.58  6081.83  33.16
670.5  18513.22  6099.18  32.94
671.9  18629.28  6122.45  32.86
673.2  18784.35  6176.17  32.88
674.6  18934.77  6255.15  33.04
676.0  19107.41  6367.55  33.33
677.3  19274.00  6518.52  33.82
678.7  19460.75  6714.72  34.50
680.0  19693.92  6998.15  35.53
681.4  19949.74  7359.14  36.89
682.8  20190.63  7802.64  38.64
684.1  20434.05  8341.94  40.82
685.5  20661.50  8954.28  43.34
686.8  20876.79  9606.46  46.02
688.2  21063.54  10280.60  48.81
689.5  21136.22  10908.36  51.61
690.9  21189.20  11519.56  54.37
692.2  21241.50  12084.96  56.89
693.6  21283.52  12617.00  59.28
694.9  21276.87  13074.73  61.45
696.2  21306.77  13500.54  63.36
697.6  21332.37  13872.72  65.03
698.9  21357.60  14226.43  66.61
700.3  21390.71  14545.45  68.00
701.6  21429.47  14848.98  69.29
703.0  21471.99  15119.11  70.41
704.3  21485.34  15328.93  71.35
705.6  21483.00  15513.89  72.21
707.0  21491.89  15687.09  72.99
708.3  21438.50  15795.44  73.68
709.6  21384.38  15894.74  74.33
711.0  21305.08  15948.56  74.86
712.3  21214.65  15989.24  75.37
713.6  21181.23  16068.08  75.86
714.9  21115.22  16108.50  76.29
716.3  21103.70  16176.72  76.65
717.6  21104.62  16251.99  77.01
718.9  21048.57  16269.15  77.29
720.2  20942.08  16222.29  77.46
721.6  20841.80  16200.22  77.73
722.9  20742.62  16164.64  77.93
724.2  20595.93  16096.24  78.15
725.5  20483.80  16051.92  78.36
726.8  20382.67  15999.85  78.50
728.1  20319.64  15965.89  78.57
729.5  20266.07  15930.09  78.60
730.8  20224.65  15908.53  78.66
732.1  20162.40  15868.31  78.70
733.4  20118.51  15848.40  78.78
734.7  20079.83  15821.20  78.79
736.0  20072.78  15820.15  78.81
737.3  20029.99  15811.35  78.94
738.6  20078.49  15866.45  79.02
739.9  20158.75  15973.71  79.24
741.2  20237.49  16042.21  79.27
742.5  20374.08  16181.60  79.42
743.8  20609.53  16409.09  79.62
745.1  20972.39  16727.18  79.76
746.4  21401.61  17072.03  79.77
747.7  21849.92  17428.53  79.76
749.0  22279.29  17754.25  79.69
750.3  22537.39  17920.09  79.51
751.6  22489.95  17872.75  79.47
752.9  22268.69  17713.93  79.55
754.2  22020.08  17546.19  79.68
755.4  21752.37  17364.13  79.83
756.7  21671.76  17336.59  80.00
758.0  21695.15  17395.95  80.18
759.3  21840.20  17553.62  80.37
760.6  22048.18  17765.03  80.57
761.9  22241.80  17956.38  80.73
763.1  22361.42  18073.95  80.83
764.4  22495.96  18219.24  80.99
765.7  22607.00  18332.17  81.09
767.0  22707.99  18420.03  81.12
768.2  22787.52  18508.67  81.22
769.5  22847.70  18584.82  81.34
770.8  22968.83  18701.49  81.42
772.0  23007.05  18743.12  81.47
773.3  23073.57  18825.86  81.59
774.6  23142.26  18919.25  81.75
775.8  23217.35  18983.01  81.76
777.1  23250.39  19022.64  81.82
778.4  23228.21  19018.30  81.88
779.6  23232.20  19053.69  82.01
780.9  23206.00  19050.13  82.09
782.1  23123.66  19027.81  82.29
783.4  23129.60  19053.36  82.38
784.6  23156.94  19097.36  82.47
785.9  23323.57  19286.82  82.69
787.1  23657.54  19585.08  82.79
788.4  23905.77  19771.76  82.71
789.6  23910.81  19689.49  82.35
790.9  23703.38  19490.06  82.22
792.1  23443.52  19285.11  82.26
793.4  23200.49  19116.96  82.40
794.6  23038.97  18985.07  82.40
795.8  22887.63  18888.55  82.53
797.1  22746.90  18784.34  82.58
798.3  22633.05  18723.54  82.73
799.5  22585.37  18689.38  82.75
800.8  22510.70  18645.23  82.83
802.0  22435.02  18586.24  82.84
803.2  22355.92  18530.79  82.89
804.5  22286.88  18475.92  82.90
805.7  22221.30  18424.06  82.91
806.9  22163.45  18366.07  82.87
808.1  22106.40  18338.65  82.96
809.4  22068.13  18310.93  82.97
810.6  22012.90  18288.57  83.08
811.8  21998.30  18288.78  83.14
813.0  22023.85  18308.98  83.13
814.2  22034.44  18315.87  83.12
815.4  22094.68  18357.65  83.09
816.6  22117.02  18354.97  82.99
817.9  22159.15  18363.15  82.87
819.1  22110.24  18303.42  82.78
820.3  22040.68  18216.60  82.65
821.5  21976.08  18139.79  82.54
822.7  21945.91  18101.32  82.48
823.9  21946.82  18078.68  82.37
825.1  21950.55  18056.63  82.26
826.3  21976.62  18027.67  82.03
827.5  21980.34  18018.41  81.98
828.7  22017.96  17984.03  81.68
829.9  22041.74  17964.44  81.50
831.0  22083.57  17972.58  81.38
832.2  22125.60  17980.91  81.27
833.4  22169.16  17977.26  81.09
834.6  22207.03  17988.75  81.00
835.8  22252.39  17994.69  80.87
837.0  22278.53  18038.95  80.97
838.1  22362.84  18089.39  80.89
839.3  22423.92  18109.91  80.76
840.5  22463.55  18155.55  80.82
841.7  22539.94  18210.44  80.79
842.9  22590.38  18290.76  80.97
844.0  22640.76  18329.12  80.96
845.2  22733.43  18390.03  80.89
846.4  22779.40  18429.83  80.91
847.5  22894.92  18511.55  80.85
848.7  22986.81  18576.70  80.81
849.9  23090.42  18625.07  80.66
851.0  23115.33  18620.36  80.55
852.2  23147.70  18632.03  80.49
853.3  23146.04  18601.61  80.37
854.5  23138.69  18583.61  80.31
855.6  23131.08  18574.81  80.30
856.8  23140.08  18588.24  80.33
857.9  23125.66  18574.93  80.32
859.1  23200.40  18614.88  80.24
860.2  23210.88  18616.43  80.21
861.4  23238.19  18624.51  80.15
862.5  23256.69  18638.07  80.14
863.7  23299.75  18670.39  80.13
864.8  23308.25  18681.18  80.15
865.9  23278.88  18649.19  80.11
867.1  23298.62  18664.46  80.11
868.2  23308.26  18638.26  79.96
869.3  23327.36  18658.12  79.98
870.5  23292.12  18607.94  79.89
871.6  23289.32  18600.49  79.87
872.7  23336.56  18632.90  79.84
873.9  23363.45  18615.99  79.68
875.0  23323.98  18604.55  79.77
876.1  23338.58  18576.38  79.60
877.2  23352.60  18570.34  79.52
878.3  23349.40  18545.71  79.43
879.4  23378.40  18540.37  79.31
880.5  23403.42  18535.05  79.20
881.7  23389.60  18499.87  79.09
882.8  23432.80  18496.98  78.94
883.9  23448.21  18477.16  78.80
885.0  23450.02  18420.49  78.55
886.1  23424.56  18382.94  78.48
887.2  23365.96  18280.88  78.24
888.3  23308.56  18204.42  78.10
889.4  23276.53  18129.36  77.89
890.5  23201.38  18077.24  77.91
891.6  23192.34  18031.77  77.75
892.7  23215.89  17992.46  77.50
893.8  23203.09  18012.53  77.63
894.9  23213.03  17986.10  77.48
896.0  23219.08  17949.97  77.31
897.0  23233.59  17944.29  77.23
898.1  23265.19  17919.93  77.02
899.2  23265.94  17899.18  76.93
900.3  23202.69  17835.99  76.87
901.4  23182.22  17791.58  76.75
902.4  23192.03  17770.77  76.62
903.5  23179.29  17741.00  76.54
904.6  23181.33  17712.52  76.41
905.7  23181.52  17693.18  76.32
906.7  23201.08  17648.75  76.07
907.8  23205.26  17642.20  76.03
908.9  23171.38  17578.31  75.86
909.9  23142.01  17543.86  75.81
911.0  23135.89  17475.66  75.53
912.1  23112.25  17431.55  75.42
913.1  23069.80  17378.26  75.33
914.2  23011.95  17287.09  75.12
915.2  23006.97  17277.37  75.10
916.3  23024.55  17232.40  74.84
917.3  23013.50  17170.21  74.61
918.4  22970.06  17079.08  74.35
919.4  22959.52  17008.12  74.08
920.5  22948.10  16977.01  73.98
921.5  22992.94  16924.41  73.61
922.6  22908.19  16852.00  73.56
923.6  22998.44  16783.94  72.98
924.7  22983.50  16738.47  72.83
925.7  22963.47  16675.17  72.62
926.7  22993.12  16633.45  72.34
927.8  23046.06  16561.69  71.86
928.8  23129.73  16532.85  71.48
929.9  23214.82  16502.29  71.09
930.9  23325.95  16506.66  70.77
931.9  23422.51  16517.62  70.52
932.9  23590.71  16544.52  70.13
934.0  23628.34  16470.12  69.70
935.0  23647.48  16393.39  69.32
936.0  23654.47  16316.09  68.98
937.0  23611.58  16223.19  68.71
938.1  23603.32  16136.90  68.37
939.1  23584.34  16032.95  67.98
940.1  23673.00  15960.05  67.42
941.1  23749.98  15978.49  67.28
942.1  23913.97  15948.47  66.69
943.1  24007.97  15917.38  66.30
944.1  24139.96  15931.30  66.00
945.2  24191.16  15853.15  65.53
946.2  24274.20  15785.27  65.03
947.2  24295.69  15695.12  64.60
948.2  24407.51  15669.76  64.20
949.2  24434.31  15586.03  63.79
950.2  24503.20  15494.34  63.23
951.2  24568.74  15405.27  62.70
952.2  24624.11  15327.48  62.25
953.2  24717.31  15246.90  61.69
954.2  24858.68  15189.57  61.10
955.2  24833.48  15094.17  60.78
956.2  24781.87  15005.84  60.55
957.2  24889.44  14930.47  59.99
958.2  24934.17  14894.18  59.73
959.2  25016.63  14851.80  59.37
960.1  25036.42  14793.78  59.09
961.1  25110.32  14761.56  58.79
962.1  25088.91  14753.50  58.80
963.1  25119.92  14747.24  58.71
964.1  25214.63  14767.68  58.57
965.1  25330.49  14788.43  58.38
966.1  25308.67  14751.75  58.29
967.0  25429.11  14746.32  57.99
968.0  25412.72  14742.50  58.01
969.0  25476.70  14768.85  57.97
970.0  25548.92  14759.15  57.77
971.0  25553.38  14761.64  57.77
971.9  25577.75  14740.47  57.63
972.9  25632.47  14788.56  57.69
973.9  25687.84  14764.84  57.48
974.9  25707.07  14773.37  57.47
975.8  25785.50  14796.74  57.38
976.8  25887.84  14746.77  56.96
977.8  25820.50  14824.36  57.41
978.8  25860.98  14841.26  57.39
979.7  25944.03  14863.57  57.29
980.7  26085.84  14840.30  56.89
981.7  26216.93  14979.45  57.14
982.6  26357.49  15075.14  57.19
983.6  26637.96  15257.42  57.28
984.6  26867.99  15400.29  57.32
985.5  27228.96  15649.78  57.47
986.5  27586.71  15956.55  57.84
987.5  28229.74  16290.15  57.71
988.4  29129.10  16474.48  56.56
989.4  29461.65  16961.26  57.57
990.4  30215.79  17399.62  57.58
991.3  31016.90  17860.28  57.58
992.3  32083.73  18337.29  57.15
993.2  32873.87  18699.58  56.88
994.2  33903.68  18689.19  55.12
995.2  33992.36  19024.53  55.97
996.1  34230.84  19519.73  57.02
997.1  34851.51  19021.75  54.58
998.0  34260.00  19414.00  56.67
999.0  34687.92  19897.37  57.36
1000.0  34688.89  19900.80  57.37
1000.9  35217.36  19831.90  56.31
1001.9  35272.85  20109.58  57.01
1002.8  34914.90  19178.80  54.93
1003.8  33603.76  19027.59  56.62
1004.8  35367.90  18862.88  53.33
961.5  31131.28  15759.00  50.62
965.5  30535.97  15666.03  51.30
969.5  29322.48  15251.99  52.01
973.4  27903.28  14890.77  53.37
977.4  26904.56  14510.55  53.93
981.4  26534.70  14380.13  54.19
985.3  26407.57  14427.57  54.63
989.3  26474.11  14609.35  55.18
993.3  26619.54  14845.77  55.77
997.2  26659.40  14988.13  56.22
1001.2  26636.74  15123.55  56.78
1005.2  26603.49  15266.14  57.38
1009.1  26619.65  15444.10  58.02
1013.1  26716.01  15675.48  58.67
1017.1  26794.94  15913.17  59.39
1021.0  26801.46  16112.65  60.12
1025.0  26791.13  16293.53  60.82
1029.0  26701.37  16414.67  61.48
1032.9  26612.69  16530.11  62.11
1036.9  26609.51  16696.16  62.75
1040.9  26674.31  16908.89  63.39
1044.8  26787.82  17146.07  64.01
1048.8  26888.29  17373.75  64.61
1052.7  26960.57  17555.72  65.12
1056.7  26977.24  17676.60  65.52
1060.7  26985.60  17774.89  65.87
1064.6  27010.97  17847.08  66.07
1068.6  26982.88  17847.50  66.14
1072.5  26926.21  17828.41  66.21
1076.5  26904.28  17805.69  66.18
1080.4  26907.72  17759.67  66.00
1084.4  26967.74  17721.29  65.71
1088.3  27046.80  17666.60  65.32
1092.3  27030.17  17549.05  64.92
1096.2  27021.53  17422.11  64.47
1100.2  27064.25  17305.07  63.94
1104.1  26999.93  17127.93  63.44
1108.1  26976.31  16972.36  62.92
1112.0  26929.62  16784.96  62.33
1116.0  26827.19  16530.09  61.62
1119.9  26743.36  16254.69  60.78
1123.9  26789.11  16002.11  59.73
1127.8  26776.32  15616.00  58.32
1131.8  26765.25  15106.65  56.44
1135.7  26806.82  14503.27  54.10
1139.6  26802.37  13846.00  51.66
1143.6  26782.94  13213.12  49.33
1147.5  26783.56  12671.10  47.31
1151.4  26689.51  12190.64  45.68
1155.4  26684.50  11880.58  44.52
1159.3  26717.33  11687.32  43.74
1163.2  26640.39  11502.69  43.18
1167.2  26631.42  11405.88  42.83
1171.1  26649.11  11330.22  42.52
1175.0  26624.79  11251.09  42.26
1179.0  26612.16  11189.35  42.05
1182.9  26679.08  11140.08  41.76
1186.8  26688.13  11082.30  41.53
1190.7  26563.51  10986.04  41.36
1194.7  26418.25  10884.17  41.20
1198.6  26292.42  10822.35  41.16
1202.5  26222.77  10787.99  41.14
1206.4  26156.30  10768.96  41.17
1210.3  26101.80  10779.65  41.30
1214.2  26061.58  10803.42  41.45
1218.2  25980.18  10825.35  41.67
1222.1  25898.70  10866.45  41.96
1226.0  25846.71  10924.31  42.27
1229.9  25808.88  10975.24  42.53
1233.8  25765.00  11011.73  42.74
1237.7  25743.41  11059.20  42.96
1241.6  25703.07  11092.26  43.16
1245.5  25624.12  11100.16  43.32
1249.4  25550.35  11107.46  43.47
1253.3  25491.83  11115.94  43.61
1257.2  25468.72  11131.41  43.71
1261.1  25410.02  11133.29  43.81
1265.0  25340.06  11113.86  43.86
1268.9  25238.59  11064.78  43.84
1272.8  25273.80  11057.05  43.75
1276.7  25394.86  11071.89  43.60
1280.6  25450.19  11051.15  43.42
1284.5  25408.33  10967.72  43.17
1288.4  25396.88  10880.40  42.84
1292.3  25335.75  10749.75  42.43
1296.2  25253.77  10597.27  41.96
1300.1  25154.45  10425.45  41.45
1303.9  25021.28  10214.32  40.82
1307.8  24888.83  9977.31  40.09
1311.7  24744.05  9725.75  39.31
1315.6  24606.58  9458.80  38.44
1319.5  24454.91  9168.79  37.49
1323.3  24310.87  8878.63  36.52
1327.2  24198.13  8591.45  35.50
1331.1  24066.72  8297.08  34.48
1335.0  23889.51  7982.82  33.42
1338.8  23760.57  7704.30  32.42
1342.7  23672.67  7470.69  31.56
1346.5  23478.13  7215.75  30.73
1350.4  23310.26  6989.38  29.98
1354.3  23083.45  6757.90  29.28
1358.1  22838.31  6518.46  28.54
1362.0  22679.75  6302.90  27.79
1365.8  22617.02  6097.18  26.96
1369.7  22674.59  5904.71  26.04
1373.5  22638.01  5645.61  24.94
1377.4  22496.49  5296.40  23.54
1381.2  22378.35  4883.07  21.82
1385.1  22350.32  4455.63  19.94
