/*** Spectra Vista SIG Data ***/
name= RT1.sig
comm= Averaged Ref/Tar of files: RD6T1,RD6T2,RD6T3
data=
346.4  350.35  46.71  13.33
347.9  381.21  50.20  13.17
349.5  410.28  50.13  12.22
351.1  433.68  52.21  12.04
352.6  475.96  53.13  11.16
354.2  499.06  56.72  11.37
355.7  540.48  56.80  10.51
357.3  582.54  60.10  10.32
358.8  588.91  65.24  11.08
360.4  636.67  64.49  10.13
361.9  668.64  65.47  9.79
363.5  692.50  65.79  9.50
365.1  712.57  65.88  9.25
366.6  747.47  67.44  9.02
368.2  792.37  66.26  8.36
369.7  840.74  68.78  8.18
371.3  898.85  71.99  8.01
372.8  941.22  71.49  7.60
374.4  986.23  73.65  7.47
375.9  1017.83  74.14  7.28
377.4  1052.18  75.03  7.13
379.0  1086.82  75.53  6.95
380.5  1123.29  75.30  6.70
382.1  1153.93  73.09  6.33
383.6  1194.95  76.36  6.39
385.2  1251.25  74.62  5.96
386.7  1299.60  78.88  6.07
388.3  1372.34  81.53  5.94
389.8  1424.66  79.97  5.61
391.3  1483.01  84.67  5.71
392.9  1530.61  89.15  5.82
394.4  1562.39  90.02  5.76
395.9  1621.81  95.25  5.87
397.5  1711.90  100.99  5.90
399.0  1784.48  98.06  5.49
400.6  1838.09  95.46  5.19
402.1  1856.31  92.71  4.99
403.6  1888.03  91.75  4.86
405.1  1944.54  92.62  4.76
406.7  2010.40  94.23  4.69
408.2  2079.37  96.67  4.65
409.7  2148.16  99.31  4.62
411.3  2213.53  100.22  4.53
412.8  2271.65  105.70  4.65
414.3  2341.03  107.85  4.61
415.8  2417.50  109.50  4.53
417.4  2490.79  113.68  4.56
418.9  2548.98  115.37  4.53
420.4  2593.45  117.15  4.52
421.9  2640.22  119.39  4.52
423.5  2679.41  119.09  4.44
425.0  2722.85  118.07  4.34
426.5  2778.88  117.68  4.23
428.0  2849.90  121.37  4.26
429.5  2939.79  123.64  4.21
431.1  3042.79  127.19  4.18
432.6  3149.06  130.09  4.13
434.1  3259.99  134.50  4.13
435.6  3346.58  137.25  4.10
437.1  3441.75  141.70  4.12
438.6  3531.11  145.15  4.11
440.1  3611.12  147.50  4.08
441.6  3703.62  149.79  4.04
443.1  3787.76  154.98  4.09
444.7  3873.68  157.55  4.07
446.2  3941.61  161.38  4.09
447.7  4009.71  165.27  4.12
449.2  4084.56  166.75  4.08
450.7  4145.44  167.51  4.04
452.2  4210.01  167.94  3.99
453.7  4291.20  171.85  4.00
455.2  4393.26  175.19  3.99
456.7  4515.28  180.22  3.99
458.2  4654.47  182.32  3.92
459.7  4795.00  189.70  3.96
461.2  4934.06  195.68  3.97
462.7  5054.96  201.08  3.98
464.2  5177.07  206.30  3.98
465.7  5301.12  211.78  4.00
467.2  5404.44  215.60  3.99
468.7  5508.00  220.93  4.01
470.2  5586.81  229.46  4.11
471.7  5702.38  237.34  4.16
473.2  5885.72  244.69  4.16
474.6  6027.25  246.90  4.10
476.1  6074.86  245.07  4.03
477.6  6093.70  244.17  4.01
479.1  6122.60  247.13  4.04
480.6  6163.05  248.33  4.03
482.1  6243.66  251.10  4.02
483.6  6332.42  255.79  4.04
485.1  6458.38  261.58  4.05
486.6  6604.00  266.02  4.03
488.0  6753.50  271.05  4.01
489.5  6913.82  278.43  4.03
491.0  7075.65  284.23  4.02
492.5  7238.97  292.03  4.03
494.0  7404.10  300.52  4.06
495.4  7549.58  307.45  4.07
496.9  7695.36  313.96  4.08
498.4  7836.28  321.35  4.10
499.9  7979.51  329.53  4.13
501.4  8103.78  335.97  4.15
502.8  8223.51  342.56  4.17
504.3  8333.10  350.16  4.20
505.8  8444.88  356.61  4.22
507.2  8514.20  362.48  4.26
508.7  8565.01  368.90  4.31
510.2  8590.79  370.85  4.32
511.6  8618.22  376.24  4.37
513.1  8670.26  380.61  4.39
514.6  8732.77  385.35  4.41
516.0  8783.27  389.06  4.43
517.5  8880.96  396.17  4.46
519.0  8994.65  403.24  4.48
520.5  9112.66  410.44  4.50
521.9  9263.01  420.54  4.54
523.4  9434.43  429.59  4.55
524.8  9608.27  439.89  4.58
526.3  9802.81  452.97  4.62
527.8  10000.35  465.08  4.65
529.2  10181.33  476.12  4.68
530.7  10383.39  487.32  4.69
532.1  10567.68  499.42  4.73
533.6  10773.42  512.57  4.76
535.0  10980.59  528.41  4.81
536.5  11186.70  541.43  4.84
538.0  11401.56  556.29  4.88
539.4  11601.83  570.78  4.92
540.9  11838.18  588.33  4.97
542.3  12056.36  604.67  5.02
543.8  12205.88  616.55  5.05
545.2  12241.58  624.62  5.10
546.6  12248.30  628.49  5.13
548.1  12260.70  633.39  5.17
549.5  12261.13  637.28  5.20
551.0  12260.01  645.40  5.26
552.4  12274.54  653.43  5.32
553.9  12279.40  660.15  5.38
555.3  12300.80  666.90  5.42
556.8  12360.66  677.17  5.48
558.2  12414.09  686.92  5.53
559.6  12499.51  698.79  5.59
561.1  12612.44  711.32  5.64
562.5  12742.28  725.50  5.69
564.0  12915.37  743.47  5.76
565.4  13070.62  761.93  5.83
566.8  13269.64  781.65  5.89
568.3  13461.39  801.56  5.95
569.7  13659.35  825.43  6.04
571.1  13859.91  847.32  6.11
572.6  14064.03  869.61  6.18
574.0  14250.23  894.52  6.28
575.4  14437.41  918.68  6.36
576.9  14612.77  941.33  6.44
578.3  14771.90  966.92  6.55
579.7  14927.19  989.95  6.63
581.1  15049.34  1010.44  6.71
582.6  15179.87  1035.92  6.82
584.0  15306.40  1059.30  6.92
585.4  15471.50  1087.91  7.03
586.8  15703.41  1119.03  7.13
588.3  15959.97  1154.56  7.23
589.7  16164.72  1187.31  7.35
591.1  16308.26  1213.59  7.44
592.5  16380.50  1234.73  7.54
594.0  16416.90  1255.19  7.65
595.4  16426.30  1271.09  7.74
596.8  16438.21  1291.58  7.86
598.2  16446.40  1309.18  7.96
599.6  16446.15  1330.32  8.09
601.0  16488.64  1352.61  8.20
602.4  16524.83  1377.37  8.34
603.9  16595.00  1401.44  8.44
605.3  16677.56  1430.89  8.58
606.7  16748.10  1456.32  8.70
608.1  16880.08  1491.85  8.84
609.5  17023.96  1527.55  8.97
610.9  17200.20  1567.64  9.11
612.3  17363.60  1608.32  9.26
613.7  17583.26  1654.87  9.41
615.1  17730.09  1698.73  9.58
616.5  17885.32  1743.99  9.75
617.9  18120.27  1802.28  9.95
619.3  18343.55  1857.31  10.13
620.7  18613.68  1920.45  10.32
622.1  18877.69  1974.16  10.46
623.5  19168.37  2018.40  10.53
624.9  19495.88  2084.71  10.69
626.3  19705.80  2148.00  10.90
627.7  19502.63  2165.82  11.11
629.1  19316.59  2191.84  11.35
630.5  19234.56  2239.81  11.64
631.9  19243.16  2305.45  11.98
633.3  19227.78  2367.14  12.31
634.7  19307.14  2428.31  12.58
636.1  19335.07  2468.32  12.77
637.5  19378.14  2509.05  12.95
638.9  19457.31  2548.60  13.10
640.2  19514.53  2562.56  13.13
641.6  19531.98  2569.01  13.15
643.0  19504.65  2564.32  13.15
644.4  19507.28  2558.66  13.12
645.8  19449.04  2550.57  13.11
647.2  19526.59  2556.94  13.09
648.5  19579.91  2563.75  13.09
649.9  19492.88  2559.17  13.13
651.3  19428.45  2579.75  13.28
652.7  19344.30  2619.70  13.54
654.1  19217.52  2641.39  13.74
655.5  19076.42  2646.09  13.87
656.8  18936.77  2643.24  13.96
658.2  19052.33  2670.99  14.02
659.6  19274.42  2715.05  14.09
660.9  19463.87  2756.96  14.16
662.3  19650.11  2798.02  14.24
663.7  19826.10  2837.52  14.31
665.0  19986.79  2876.63  14.39
666.4  20146.14  2919.08  14.49
667.8  20346.56  2975.64  14.62
669.1  20529.76  3030.42  14.76
670.5  20738.52  3097.25  14.93
671.9  20872.26  3162.54  15.15
673.2  21059.41  3244.33  15.41
674.6  21230.21  3330.88  15.69
676.0  21420.32  3429.71  16.01
677.3  21614.12  3539.71  16.38
678.7  21817.38  3654.44  16.75
680.0  22089.50  3789.18  17.15
681.4  22373.47  3927.19  17.55
682.8  22657.86  4066.49  17.95
684.1  22942.53  4212.47  18.36
685.5  23200.94  4351.89  18.76
686.8  23448.72  4493.11  19.16
688.2  23672.40  4627.12  19.55
689.5  23749.65  4728.79  19.91
690.9  23825.77  4828.37  20.27
692.2  23869.28  4919.46  20.61
693.6  23926.69  5006.91  20.93
694.9  23920.11  5072.87  21.21
696.2  23942.14  5149.47  21.51
697.6  23961.85  5222.56  21.80
698.9  23992.32  5302.88  22.10
700.3  24038.01  5388.24  22.42
701.6  24084.68  5472.92  22.72
703.0  24137.54  5564.10  23.05
704.3  24141.49  5642.87  23.37
705.6  24144.66  5712.43  23.66
707.0  24151.61  5788.09  23.97
708.3  24094.31  5837.18  24.23
709.6  24038.25  5891.57  24.51
711.0  23936.43  5934.13  24.79
712.3  23827.16  5974.31  25.07
713.6  23789.01  6035.04  25.37
714.9  23716.29  6088.14  25.67
716.3  23686.39  6152.86  25.98
717.6  23672.15  6226.69  26.30
718.9  23614.96  6288.87  26.63
720.2  23494.56  6331.44  26.95
721.6  23399.74  6372.69  27.23
722.9  23270.63  6407.23  27.53
724.2  23091.17  6424.66  27.82
725.5  22957.02  6455.08  28.12
726.8  22832.78  6484.35  28.40
728.1  22750.67  6520.60  28.66
729.5  22685.44  6561.71  28.92
730.8  22628.18  6602.67  29.18
732.1  22547.20  6637.51  29.44
733.4  22493.78  6683.93  29.71
734.7  22430.29  6727.04  29.99
736.0  22412.65  6789.18  30.29
737.3  22354.35  6831.44  30.56
738.6  22392.88  6907.34  30.85
739.9  22486.41  6995.83  31.11
741.2  22557.99  7074.52  31.36
742.5  22690.46  7179.33  31.64
743.8  22954.18  7324.44  31.91
745.1  23356.68  7508.12  32.15
746.4  23838.13  7722.77  32.40
747.7  24340.83  7964.64  32.72
749.0  24845.90  8215.91  33.07
750.3  25109.11  8400.10  33.45
751.6  25056.94  8468.15  33.80
752.9  24812.33  8465.95  34.12
754.2  24511.78  8433.27  34.40
755.4  24190.11  8379.27  34.64
756.7  24095.29  8403.83  34.88
758.0  24119.44  8462.91  35.09
759.3  24282.67  8572.74  35.30
760.6  24509.10  8710.44  35.54
761.9  24709.31  8851.00  35.82
763.1  24854.26  8971.30  36.10
764.4  25021.13  9089.34  36.33
765.7  25148.50  9201.62  36.59
767.0  25255.87  9297.20  36.81
768.2  25351.20  9399.71  37.08
769.5  25424.49  9486.98  37.31
770.8  25570.26  9609.38  37.58
772.0  25587.81  9686.36  37.86
773.3  25669.17  9779.94  38.10
774.6  25760.75  9890.78  38.39
775.8  25826.13  9985.60  38.66
777.1  25851.30  10064.71  38.93
778.4  25836.83  10121.51  39.17
779.6  25861.37  10191.27  39.41
780.9  25820.00  10240.27  39.66
782.1  25728.02  10267.59  39.91
783.4  25750.40  10336.49  40.14
784.6  25767.74  10404.68  40.38
785.9  25975.04  10540.47  40.58
787.1  26352.59  10747.22  40.78
788.4  26662.70  10956.46  41.09
789.6  26677.46  11069.91  41.50
790.9  26422.83  11073.99  41.91
792.1  26144.60  11020.34  42.15
793.4  25865.12  10959.81  42.37
794.6  25676.57  10952.64  42.66
795.8  25513.36  10949.41  42.92
797.1  25350.08  10938.52  43.15
798.3  25228.50  10946.87  43.39
799.5  25169.97  10975.80  43.61
800.8  25099.23  11009.75  43.86
802.0  25011.42  11029.40  44.10
803.2  24918.76  11046.88  44.33
804.5  24860.18  11082.24  44.58
805.7  24781.04  11112.69  44.84
806.9  24699.71  11134.22  45.08
808.1  24647.73  11173.70  45.33
809.4  24609.13  11218.21  45.59
810.6  24558.63  11254.58  45.83
811.8  24538.32  11293.46  46.02
813.0  24560.28  11349.50  46.21
814.2  24583.06  11402.89  46.39
815.4  24644.79  11487.73  46.61
816.6  24675.27  11555.71  46.83
817.9  24704.84  11632.21  47.08
819.1  24672.89  11666.24  47.28
820.3  24583.02  11676.47  47.50
821.5  24511.70  11699.80  47.73
822.7  24474.49  11726.00  47.91
823.9  24466.74  11770.89  48.11
825.1  24483.13  11812.94  48.25
826.3  24493.16  11854.11  48.40
827.5  24511.03  11901.11  48.55
828.7  24560.16  11944.46  48.63
829.9  24556.61  11986.66  48.81
831.0  24631.50  12052.69  48.93
832.2  24684.15  12108.48  49.05
833.4  24732.69  12166.91  49.19
834.6  24771.09  12226.25  49.36
835.8  24806.25  12277.44  49.49
837.0  24848.21  12345.28  49.68
838.1  24942.61  12426.90  49.82
839.3  24987.97  12482.46  49.95
840.5  25056.73  12550.79  50.09
841.7  25139.84  12637.02  50.27
842.9  25202.72  12713.04  50.44
844.0  25272.39  12783.03  50.58
845.2  25356.92  12870.01  50.76
846.4  25406.55  12936.26  50.92
847.5  25535.27  13038.17  51.06
848.7  25649.51  13139.71  51.23
849.9  25759.43  13241.22  51.40
851.0  25787.85  13312.95  51.62
852.2  25836.49  13380.12  51.79
853.3  25835.02  13411.43  51.91
854.5  25803.13  13448.72  52.12
855.6  25784.28  13483.08  52.29
856.8  25811.14  13547.15  52.49
857.9  25796.36  13577.36  52.63
859.1  25866.40  13654.47  52.79
860.2  25870.46  13689.14  52.91
861.4  25883.89  13739.37  53.08
862.5  25913.95  13792.36  53.22
863.7  25967.63  13852.03  53.34
864.8  25978.23  13890.52  53.47
865.9  25934.02  13911.54  53.64
867.1  25972.57  13959.77  53.75
868.2  25960.64  13997.70  53.92
869.3  25983.57  14044.63  54.05
870.5  25945.69  14048.94  54.15
871.6  25952.82  14083.42  54.27
872.7  25988.86  14150.51  54.45
873.9  26010.48  14187.31  54.54
875.0  25998.57  14190.14  54.58
876.1  25976.68  14207.52  54.69
877.2  25992.15  14240.01  54.79
878.3  25997.76  14252.04  54.82
879.4  26016.59  14288.42  54.92
880.5  26032.32  14312.26  54.98
881.7  26038.68  14323.88  55.01
882.8  26051.76  14368.67  55.15
883.9  26088.59  14399.67  55.20
885.0  26049.66  14397.11  55.27
886.1  26068.54  14425.16  55.34
887.2  25979.14  14389.55  55.39
888.3  25929.87  14381.41  55.46
889.4  25867.81  14341.42  55.44
890.5  25830.84  14336.56  55.50
891.6  25777.28  14320.51  55.55
892.7  25812.52  14330.03  55.52
893.8  25792.32  14347.64  55.63
894.9  25833.34  14363.92  55.60
896.0  25797.95  14347.49  55.61
897.0  25823.30  14375.00  55.67
898.1  25837.83  14377.67  55.65
899.2  25853.12  14383.60  55.64
900.3  25827.20  14362.94  55.61
901.4  25755.93  14340.48  55.68
902.4  25796.28  14370.41  55.71
903.5  25760.57  14337.31  55.66
904.6  25773.48  14346.07  55.66
905.7  25786.56  14338.13  55.60
906.7  25778.44  14345.87  55.65
907.8  25791.16  14352.53  55.65
908.9  25756.23  14306.75  55.55
909.9  25738.83  14299.46  55.56
911.0  25715.27  14282.34  55.54
912.1  25708.69  14241.08  55.39
913.1  25683.06  14210.74  55.33
914.2  25568.28  14144.04  55.32
915.2  25594.38  14123.20  55.18
916.3  25582.28  14113.55  55.17
917.3  25579.53  14073.46  55.02
918.4  25529.08  14015.73  54.90
919.4  25526.52  13966.66  54.71
920.5  25540.93  13932.42  54.55
921.5  25532.64  13894.15  54.42
922.6  25509.72  13826.36  54.20
923.6  25552.64  13790.55  53.97
924.7  25558.13  13749.25  53.80
925.7  25559.01  13685.05  53.54
926.7  25571.07  13632.05  53.31
927.8  25622.74  13594.53  53.06
928.8  25737.00  13560.79  52.69
929.9  25798.01  13516.26  52.39
930.9  25912.02  13506.14  52.12
931.9  26063.45  13499.17  51.79
932.9  26272.00  13511.54  51.43
934.0  26311.65  13444.66  51.10
935.0  26328.00  13346.43  50.69
936.0  26313.67  13245.08  50.34
937.0  26305.79  13158.25  50.02
938.1  26273.03  13055.09  49.69
939.1  26282.27  12962.07  49.32
940.1  26307.38  12889.44  49.00
941.1  26474.98  12858.57  48.57
942.1  26613.43  12816.60  48.16
943.1  26709.35  12763.67  47.79
944.1  26891.46  12740.93  47.38
945.2  26931.87  12633.74  46.91
946.2  27005.05  12551.34  46.48
947.2  27050.94  12459.26  46.06
948.2  27161.01  12384.60  45.60
949.2  27258.97  12274.71  45.03
950.2  27257.00  12165.43  44.63
951.2  27381.90  12072.31  44.09
952.2  27427.92  11960.01  43.61
953.2  27549.11  11887.18  43.15
954.2  27670.16  11811.77  42.69
955.2  27683.23  11697.01  42.25
956.2  27678.04  11599.31  41.91
957.2  27683.31  11525.67  41.63
958.2  27771.67  11460.91  41.27
959.2  27855.45  11424.12  41.01
960.1  27895.78  11390.92  40.83
961.1  27947.74  11378.70  40.71
962.1  27921.09  11326.38  40.57
963.1  28038.72  11316.43  40.36
964.1  28081.62  11308.60  40.27
965.1  28159.91  11312.56  40.17
966.1  28230.04  11293.32  40.00
967.0  28291.66  11324.75  40.03
968.0  28354.15  11313.95  39.90
969.0  28355.00  11329.16  39.95
970.0  28440.42  11326.14  39.82
971.0  28447.07  11357.57  39.93
971.9  28529.94  11353.72  39.80
972.9  28619.85  11380.74  39.77
973.9  28640.46  11396.28  39.79
974.9  28629.25  11412.20  39.86
975.8  28737.28  11440.04  39.81
976.8  28722.61  11479.04  39.97
977.8  28846.97  11494.19  39.85
978.8  28789.28  11524.79  40.03
979.7  28914.30  11590.16  40.08
980.7  28909.16  11611.38  40.17
981.7  29108.19  11669.36  40.09
982.6  29310.11  11775.25  40.17
983.6  29612.62  11877.21  40.11
984.6  29886.86  12043.30  40.30
985.5  30220.02  12207.19  40.39
986.5  30590.42  12404.79  40.55
987.5  31346.01  12703.38  40.53
988.4  31956.65  12875.13  40.29
989.4  32957.10  13216.13  40.10
990.4  33646.09  13672.52  40.64
991.3  34254.92  14008.73  40.90
992.3  35605.12  14189.88  39.85
993.2  35791.00  14630.56  40.88
994.2  37066.33  15028.94  40.55
995.2  37769.29  15256.93  40.40
996.1  38356.88  15566.88  40.58
997.1  37945.80  15504.04  40.86
998.0  38542.50  15599.72  40.47
999.0  38301.25  15392.77  40.19
1000.0  38064.02  15725.63  41.31
1000.9  38955.51  15949.46  40.94
1001.9  38313.61  15595.73  40.71
1002.8  38469.11  15471.27  40.22
1003.8  38840.71  15681.76  40.37
1004.8  39018.78  15729.21  40.31
961.5  34418.44  10570.46  30.71
965.5  34203.70  10662.00  31.17
969.5  33124.73  10547.50  31.84
973.4  31599.68  10352.91  32.76
977.4  30418.99  10326.71  33.95
981.4  29806.10  10400.89  34.90
985.3  29606.90  10476.49  35.39
989.3  29665.19  10623.79  35.81
993.3  29713.32  10780.60  36.28
997.2  29668.74  10882.93  36.68
1001.2  29627.00  11017.11  37.19
1005.2  29568.23  11205.29  37.90
1009.1  29600.49  11436.03  38.63
1013.1  29702.49  11719.56  39.46
1017.1  29789.49  12016.77  40.34
1021.0  29789.99  12264.38  41.17
1025.0  29760.59  12523.06  42.08
1029.0  29636.30  12748.72  43.02
1032.9  29533.53  12973.22  43.93
1036.9  29509.70  13239.32  44.86
1040.9  29556.91  13525.41  45.76
1044.8  29679.34  13828.39  46.59
1048.8  29786.37  14103.99  47.35
1052.7  29868.84  14333.96  47.99
1056.7  29898.31  14512.10  48.54
1060.7  29913.73  14645.31  48.96
1064.6  29918.21  14745.72  49.29
1068.6  29859.11  14781.65  49.50
1072.5  29814.52  14766.95  49.53
1076.5  29798.83  14732.25  49.44
1080.4  29797.49  14675.23  49.25
1084.4  29858.05  14610.72  48.93
1088.3  29928.60  14500.13  48.45
1092.3  29919.24  14317.14  47.85
1096.2  29930.07  14126.60  47.20
1100.2  29956.02  13934.80  46.52
1104.1  29873.92  13683.51  45.80
1108.1  29858.25  13462.55  45.09
1112.0  29809.22  13208.49  44.31
1116.0  29674.06  12892.86  43.45
1119.9  29580.84  12545.54  42.41
1123.9  29636.88  12176.75  41.09
1127.8  29621.76  11650.56  39.33
1131.8  29615.13  10990.58  37.11
1135.7  29658.37  10249.37  34.56
1139.6  29649.41  9473.71  31.95
1143.6  29635.32  8784.46  29.64
1147.5  29635.02  8234.66  27.79
1151.4  29535.85  7798.05  26.40
1155.4  29547.88  7526.77  25.47
1159.3  29582.50  7350.78  24.85
1163.2  29498.44  7203.08  24.42
1167.2  29505.90  7120.12  24.13
1171.1  29517.01  7054.07  23.90
1175.0  29484.53  6986.99  23.70
1179.0  29486.15  6930.43  23.50
1182.9  29537.81  6896.68  23.35
1186.8  29538.86  6853.83  23.20
1190.7  29410.97  6784.47  23.07
1194.7  29255.48  6718.72  22.97
1198.6  29133.72  6670.13  22.89
1202.5  29044.69  6651.25  22.90
1206.4  28972.03  6646.80  22.94
1210.3  28920.11  6654.54  23.01
1214.2  28863.76  6675.38  23.13
1218.2  28763.18  6695.14  23.28
1222.1  28692.28  6713.75  23.40
1226.0  28656.56  6750.94  23.56
1229.9  28600.92  6790.36  23.74
1233.8  28545.33  6813.06  23.87
1237.7  28520.81  6844.75  24.00
1241.6  28465.46  6867.36  24.13
1245.5  28370.21  6874.79  24.23
1249.4  28299.76  6886.51  24.33
1253.3  28232.22  6894.02  24.42
1257.2  28191.00  6896.43  24.46
1261.1  28130.65  6887.59  24.48
1265.0  28057.45  6871.68  24.49
1268.9  27949.80  6826.31  24.42
1272.8  27989.85  6808.65  24.33
1276.7  28109.94  6800.04  24.19
1280.6  28175.48  6755.21  23.98
1284.5  28132.96  6678.28  23.74
1288.4  28112.11  6591.49  23.45
1292.3  28036.25  6475.33  23.10
1296.2  27954.20  6344.43  22.70
1300.1  27848.52  6199.57  22.26
1303.9  27706.57  6026.04  21.75
1307.8  27559.31  5840.92  21.19
1311.7  27397.23  5643.20  20.60
1315.6  27238.78  5443.30  19.98
1319.5  27066.08  5237.61  19.35
1323.3  26913.00  5026.24  18.68
1327.2  26776.06  4825.30  18.02
1331.1  26621.95  4631.77  17.40
1335.0  26429.02  4437.17  16.79
1338.8  26290.11  4261.52  16.21
1342.7  26169.42  4106.68  15.69
1346.5  25929.13  3942.84  15.21
1350.4  25728.90  3798.25  14.76
1354.3  25457.85  3655.42  14.36
1358.1  25158.95  3521.59  14.00
1362.0  24980.59  3399.03  13.61
1365.8  24927.82  3285.24  13.18
1369.7  24996.19  3168.48  12.68
1373.5  24961.93  3003.41  12.03
1377.4  24802.90  2804.18  11.31
1381.2  24660.90  2591.90  10.51
1385.1  24643.85  2385.44  9.68
1389.0  24592.75  2175.15  8.84
1392.8  24461.78  1978.70  8.09
1396.6  24365.22  1819.14  7.47
1400.5  24231.60  1676.85  6.92
1404.3  24125.27  1561.56  6.47
