/*** Spectra Vista SIG Data ***/
name= GB.sig
comm= SIG file reprocesed for matching/overlap;Averaged Ref/Tar of files: GD5B1,GD5B2,GD5B3
data=
346.4  366.28  107.01  29.22
347.9  400.03  104.59  26.15
349.5  432.12  108.57  25.12
351.1  468.00  115.65  24.71
352.6  496.51  118.91  23.95
354.2  520.33  122.61  23.56
355.7  575.84  125.27  21.75
357.3  598.14  130.38  21.80
358.8  616.87  134.68  21.83
360.4  668.33  138.35  20.70
361.9  686.05  137.91  20.10
363.5  715.01  136.19  19.05
365.1  743.78  134.54  18.09
366.6  778.54  137.64  17.68
368.2  824.27  139.23  16.89
369.7  873.39  133.65  15.30
371.3  928.49  140.92  15.18
372.8  977.74  144.75  14.80
374.4  1016.27  139.73  13.75
375.9  1052.58  145.64  13.84
377.4  1084.71  146.14  13.47
379.0  1129.79  148.52  13.15
380.5  1157.14  149.36  12.91
382.1  1186.43  145.38  12.25
383.6  1234.64  141.75  11.48
385.2  1293.88  143.00  11.05
386.7  1345.63  145.48  10.81
388.3  1410.38  152.18  10.79
389.8  1464.46  161.04  11.00
391.3  1527.57  160.79  10.53
392.9  1567.60  168.42  10.74
394.4  1609.87  178.84  11.11
395.9  1662.63  190.49  11.46
397.5  1749.05  196.81  11.25
399.0  1827.74  198.58  10.86
400.6  1876.29  202.25  10.78
402.1  1904.04  197.46  10.37
403.6  1943.17  190.20  9.79
405.1  1994.81  194.68  9.76
406.7  2061.92  200.41  9.72
408.2  2135.06  207.90  9.74
409.7  2198.56  218.33  9.93
411.3  2272.05  231.03  10.17
412.8  2335.64  236.37  10.12
414.3  2399.77  249.32  10.39
415.8  2475.00  260.33  10.52
417.4  2547.71  271.56  10.66
418.9  2612.23  278.64  10.67
420.4  2658.25  282.15  10.61
421.9  2705.56  289.11  10.69
423.5  2743.63  298.26  10.87
425.0  2788.02  296.37  10.63
426.5  2844.45  304.15  10.69
428.0  2917.63  305.14  10.46
429.5  3009.90  317.84  10.56
431.1  3112.45  330.24  10.61
432.6  3227.88  341.44  10.58
434.1  3329.29  356.77  10.72
435.6  3423.98  369.46  10.79
437.1  3517.80  382.20  10.86
438.6  3607.74  392.74  10.89
440.1  3694.39  405.49  10.98
441.6  3790.73  415.72  10.97
443.1  3873.83  431.73  11.14
444.7  3959.99  443.33  11.20
446.2  4024.76  458.61  11.39
447.7  4101.41  473.21  11.54
449.2  4174.20  491.04  11.76
450.7  4238.00  497.26  11.73
452.2  4313.18  513.26  11.90
453.7  4393.64  526.97  11.99
455.2  4491.99  545.92  12.15
456.7  4618.24  567.89  12.30
458.2  4761.06  597.88  12.56
459.7  4899.13  623.70  12.73
461.2  5044.37  650.46  12.89
462.7  5165.05  676.38  13.10
464.2  5287.79  701.99  13.28
465.7  5408.14  730.97  13.52
467.2  5518.98  754.60  13.67
468.7  5631.00  773.60  13.74
470.2  5705.20  798.15  13.99
471.7  5821.13  826.50  14.20
473.2  6011.22  856.83  14.25
474.6  6153.75  865.79  14.07
476.1  6204.18  853.09  13.75
477.6  6220.94  861.04  13.84
479.1  6250.52  869.26  13.91
480.6  6293.37  880.14  13.99
482.1  6374.96  902.40  14.16
483.6  6474.12  927.22  14.32
485.1  6599.29  957.74  14.51
486.6  6739.10  995.31  14.77
488.0  6898.13  1038.92  15.06
489.5  7058.36  1085.71  15.38
491.0  7224.81  1139.50  15.77
492.5  7392.87  1200.31  16.24
494.0  7557.79  1264.62  16.73
495.4  7702.20  1325.06  17.20
496.9  7844.83  1395.45  17.79
498.4  7990.29  1465.25  18.34
499.9  8131.50  1541.17  18.95
501.4  8263.45  1620.06  19.61
502.8  8392.79  1697.82  20.23
504.3  8499.60  1780.08  20.94
505.8  8611.18  1861.61  21.62
507.2  8674.01  1939.38  22.36
508.7  8728.20  2019.17  23.13
510.2  8764.92  2089.33  23.84
511.6  8789.76  2165.49  24.64
513.1  8840.43  2243.25  25.37
514.6  8904.34  2326.29  26.13
516.0  8958.85  2409.70  26.90
517.5  9056.55  2504.35  27.65
519.0  9171.31  2607.20  28.43
520.5  9287.32  2713.44  29.22
521.9  9437.16  2826.39  29.95
523.4  9612.27  2947.56  30.66
524.8  9785.79  3071.31  31.39
526.3  9984.58  3199.13  32.04
527.8  10184.06  3330.04  32.70
529.2  10366.76  3453.33  33.31
530.7  10567.61  3581.54  33.89
532.1  10746.40  3705.60  34.48
533.6  10959.02  3836.57  35.01
535.0  11168.56  3969.04  35.54
536.5  11376.00  4105.32  36.09
538.0  11592.92  4245.00  36.62
539.4  11785.91  4381.10  37.17
540.9  12037.93  4525.01  37.59
542.3  12246.63  4654.99  38.01
543.8  12400.56  4761.84  38.40
545.2  12445.48  4832.80  38.83
546.6  12442.01  4895.59  39.35
548.1  12455.19  4958.80  39.81
549.5  12460.55  5017.30  40.27
551.0  12456.77  5069.78  40.70
552.4  12484.13  5127.06  41.07
553.9  12491.52  5176.92  41.44
555.3  12509.64  5225.92  41.78
556.8  12569.08  5291.29  42.10
558.2  12630.94  5353.88  42.39
559.6  12713.51  5424.83  42.67
561.1  12831.00  5512.65  42.96
562.5  12959.42  5605.12  43.25
564.0  13129.35  5718.26  43.55
565.4  13288.41  5824.96  43.83
566.8  13487.87  5947.16  44.09
568.3  13678.39  6069.22  44.37
569.7  13879.32  6186.52  44.57
571.1  14074.77  6296.50  44.74
572.6  14269.77  6407.86  44.91
574.0  14463.08  6512.88  45.03
575.4  14650.03  6611.18  45.13
576.9  14818.07  6706.39  45.26
578.3  14977.46  6795.84  45.37
579.7  15131.24  6881.56  45.48
581.1  15254.19  6950.30  45.56
582.6  15387.18  7030.21  45.69
584.0  15508.86  7099.17  45.77
585.4  15681.05  7182.04  45.80
586.8  15909.04  7287.67  45.81
588.3  16162.38  7408.13  45.84
589.7  16371.81  7509.22  45.87
591.1  16519.39  7590.75  45.95
592.5  16589.78  7643.94  46.08
594.0  16627.80  7688.01  46.24
595.4  16637.76  7713.42  46.36
596.8  16651.64  7744.59  46.51
598.2  16659.51  7765.93  46.62
599.6  16659.36  7781.27  46.71
601.0  16705.59  7815.61  46.78
602.4  16752.94  7839.43  46.79
603.9  16822.23  7878.88  46.84
605.3  16905.11  7923.10  46.87
606.7  16973.10  7948.32  46.83
608.1  17114.04  8006.12  46.78
609.5  17255.15  8067.02  46.75
610.9  17434.91  8131.41  46.64
612.3  17598.49  8186.02  46.52
613.7  17818.60  8270.85  46.42
615.1  17967.42  8324.42  46.33
616.5  18122.06  8378.10  46.23
617.9  18356.64  8466.54  46.12
619.3  18578.68  8549.73  46.02
620.7  18848.67  8654.89  45.92
622.1  19119.58  8712.17  45.57
623.5  19414.06  8766.63  45.16
624.9  19741.18  8862.88  44.90
626.3  19952.52  8942.32  44.82
627.7  19741.37  8890.97  45.04
629.1  19544.02  8874.56  45.41
630.5  19457.12  8915.63  45.82
631.9  19461.81  8992.72  46.21
633.3  19457.49  9052.70  46.53
634.7  19533.17  9136.48  46.77
636.1  19566.68  9190.99  46.97
637.5  19597.55  9244.72  47.17
638.9  19677.50  9319.41  47.36
640.2  19731.43  9389.06  47.58
641.6  19754.28  9394.63  47.56
643.0  19715.36  9340.26  47.38
644.4  19707.26  9265.46  47.02
645.8  19650.11  9087.93  46.25
647.2  19716.78  8910.77  45.19
648.5  19765.84  8696.94  44.00
649.9  19671.60  8423.98  42.82
651.3  19608.23  8172.58  41.68
652.7  19503.68  7910.10  40.56
654.1  19390.95  7817.22  40.31
655.5  19238.75  7775.79  40.42
656.8  19118.09  7715.27  40.36
658.2  19225.93  7718.21  40.14
659.6  19449.31  7711.51  39.65
660.9  19643.18  7663.71  39.01
662.3  19825.21  7590.34  38.29
663.7  20008.80  7513.24  37.55
665.0  20165.89  7416.20  36.78
666.4  20328.89  7323.32  36.02
667.8  20535.62  7252.23  35.32
669.1  20711.76  7179.86  34.67
670.5  20914.18  7140.31  34.14
671.9  21055.86  7075.54  33.60
673.2  21237.33  7058.79  33.24
674.6  21400.77  7050.57  32.95
676.0  21596.49  7082.70  32.80
677.3  21793.24  7131.66  32.72
678.7  21992.69  7219.05  32.82
680.0  22269.19  7377.45  33.13
681.4  22542.00  7584.44  33.65
682.8  22829.63  7844.81  34.36
684.1  23112.18  8171.28  35.35
685.5  23364.31  8559.63  36.64
686.8  23617.23  9014.75  38.17
688.2  23841.32  9524.85  39.95
689.5  23927.84  10016.65  41.86
690.9  23997.39  10537.14  43.91
692.2  24047.78  11064.96  46.01
693.6  24110.83  11585.13  48.05
694.9  24095.99  12043.63  49.98
696.2  24121.97  12512.81  51.87
697.6  24149.95  12963.57  53.68
698.9  24174.48  13388.67  55.38
700.3  24215.57  13798.20  56.98
701.6  24264.40  14183.08  58.45
703.0  24323.35  14546.37  59.80
704.3  24329.34  14852.68  61.05
705.6  24327.41  15122.54  62.16
707.0  24334.75  15373.78  63.18
708.3  24282.08  15560.25  64.08
709.6  24223.21  15730.72  64.94
711.0  24124.28  15857.24  65.73
712.3  24015.02  15957.40  66.45
713.6  23977.17  16093.56  67.12
714.9  23907.38  16195.00  67.74
716.3  23880.58  16325.30  68.36
717.6  23876.83  16451.86  68.90
718.9  23805.06  16528.66  69.43
720.2  23675.16  16555.40  69.93
721.6  23576.15  16585.73  70.35
722.9  23446.45  16600.40  70.80
724.2  23274.82  16559.14  71.15
725.5  23133.68  16541.00  71.50
726.8  23009.81  16510.83  71.76
728.1  22933.91  16510.47  71.99
729.5  22856.87  16509.63  72.23
730.8  22796.53  16493.26  72.35
732.1  22719.29  16455.48  72.43
733.4  22660.56  16431.60  72.51
734.7  22602.67  16414.85  72.62
736.0  22569.89  16413.56  72.72
737.3  22520.76  16390.35  72.78
738.6  22554.56  16452.62  72.95
739.9  22633.16  16548.11  73.11
741.2  22698.59  16619.51  73.22
742.5  22841.25  16752.40  73.34
743.8  23091.34  16973.50  73.51
745.1  23491.07  17290.10  73.60
746.4  23957.57  17667.41  73.74
747.7  24466.55  18076.68  73.88
749.0  24948.63  18497.18  74.14
750.3  25229.30  18774.62  74.42
751.6  25175.69  18796.17  74.66
752.9  24925.64  18641.18  74.79
754.2  24630.59  18442.40  74.88
755.4  24314.44  18214.37  74.91
756.7  24210.69  18146.58  74.95
758.0  24235.24  18174.48  74.99
759.3  24394.18  18311.67  75.07
760.6  24621.52  18508.75  75.17
761.9  24823.09  18688.37  75.29
763.1  24955.30  18798.91  75.33
764.4  25125.21  18941.29  75.39
765.7  25257.38  19063.63  75.48
767.0  25349.99  19153.62  75.56
768.2  25431.84  19233.09  75.63
769.5  25509.93  19304.32  75.67
770.8  25646.87  19446.75  75.83
772.0  25674.66  19497.97  75.94
773.3  25762.96  19582.47  76.01
774.6  25839.71  19675.79  76.15
775.8  25921.43  19759.42  76.23
777.1  25948.26  19813.05  76.36
778.4  25918.05  19817.07  76.46
779.6  25945.86  19853.31  76.52
780.9  25904.00  19864.00  76.68
782.1  25811.51  19807.55  76.74
783.4  25819.04  19846.53  76.87
784.6  25849.06  19885.45  76.93
785.9  26028.56  20046.21  77.02
787.1  26416.14  20366.53  77.10
788.4  26716.91  20685.64  77.43
789.6  26732.54  20793.14  77.78
790.9  26499.75  20653.27  77.94
792.1  26215.36  20447.20  78.00
793.4  25939.41  20273.55  78.16
794.6  25766.06  20171.99  78.29
795.8  25608.38  20089.94  78.45
797.1  25427.85  19968.35  78.53
798.3  25301.10  19893.01  78.63
799.5  25235.55  19862.22  78.71
800.8  25155.70  19834.23  78.85
802.0  25074.70  19792.17  78.93
803.2  24986.56  19745.77  79.03
804.5  24925.76  19723.53  79.13
805.7  24855.66  19691.57  79.22
806.9  24776.64  19648.15  79.30
808.1  24708.89  19607.05  79.35
809.4  24677.19  19591.72  79.39
810.6  24617.78  19553.47  79.43
811.8  24606.91  19544.08  79.43
813.0  24601.75  19556.69  79.49
814.2  24620.30  19555.34  79.43
815.4  24684.78  19619.85  79.48
816.6  24715.54  19642.94  79.48
817.9  24752.29  19675.93  79.49
819.1  24717.85  19632.93  79.43
820.3  24615.89  19559.37  79.46
821.5  24558.22  19482.81  79.33
822.7  24525.20  19430.23  79.23
823.9  24512.51  19407.38  79.17
825.1  24512.73  19361.79  78.99
826.3  24527.23  19322.58  78.78
827.5  24554.23  19298.99  78.60
828.7  24585.24  19280.29  78.42
829.9  24620.63  19244.74  78.17
831.0  24677.45  19246.31  77.99
832.2  24735.00  19231.45  77.75
833.4  24800.15  19234.67  77.56
834.6  24827.34  19228.75  77.45
835.8  24886.58  19235.16  77.29
837.0  24941.18  19258.79  77.22
838.1  25036.55  19307.25  77.12
839.3  25073.20  19320.91  77.06
840.5  25138.07  19358.46  77.01
841.7  25214.76  19407.90  76.97
842.9  25311.78  19442.55  76.81
844.0  25352.29  19454.97  76.74
845.2  25454.19  19515.84  76.67
846.4  25527.43  19553.75  76.60
847.5  25656.16  19653.05  76.60
848.7  25745.00  19727.91  76.63
849.9  25879.71  19828.60  76.62
851.0  25913.04  19860.94  76.64
852.2  25966.07  19901.92  76.65
853.3  25941.98  19897.07  76.70
854.5  25934.86  19899.26  76.73
855.6  25916.94  19884.53  76.72
856.8  25944.85  19892.87  76.67
857.9  25943.54  19879.11  76.62
859.1  25996.60  19929.28  76.66
860.2  26027.46  19918.48  76.53
861.4  26023.97  19931.12  76.59
862.5  26059.24  19932.15  76.49
863.7  26115.12  19973.52  76.48
864.8  26101.25  19961.53  76.48
865.9  26082.46  19928.52  76.41
867.1  26099.25  19939.92  76.40
868.2  26099.69  19929.58  76.36
869.3  26128.19  19940.25  76.32
870.5  26099.47  19905.88  76.27
871.6  26087.08  19894.26  76.26
872.7  26136.21  19926.63  76.24
873.9  26148.82  19916.07  76.16
875.0  26142.73  19871.16  76.01
876.1  26142.29  19873.48  76.02
877.2  26184.05  19852.77  75.82
878.3  26169.01  19841.35  75.82
879.4  26191.11  19835.92  75.74
880.5  26214.48  19839.98  75.68
881.7  26220.35  19809.05  75.55
882.8  26271.44  19821.39  75.45
883.9  26272.50  19833.99  75.49
885.0  26275.91  19824.71  75.45
886.1  26278.81  19809.77  75.38
887.2  26194.66  19744.03  75.37
888.3  26154.69  19717.55  75.39
889.4  26083.75  19642.14  75.30
890.5  26060.47  19587.68  75.16
891.6  26043.45  19542.74  75.04
892.7  26025.13  19501.58  74.93
893.8  26046.70  19498.83  74.86
894.9  26070.72  19471.25  74.69
896.0  26059.51  19439.17  74.60
897.0  26054.12  19410.41  74.50
898.1  26079.30  19397.26  74.38
899.2  26095.96  19374.90  74.24
900.3  26052.56  19299.58  74.08
901.4  26029.33  19258.50  73.99
902.4  26018.83  19234.20  73.92
903.5  26017.27  19193.74  73.77
904.6  26012.16  19179.02  73.73
905.7  26050.43  19133.71  73.45
906.7  26024.14  19100.42  73.40
907.8  26076.86  19102.70  73.26
908.9  26057.48  19038.53  73.06
909.9  26017.06  18982.21  72.96
911.0  26009.49  18921.94  72.75
912.1  25979.15  18860.91  72.60
913.1  25944.88  18787.81  72.41
914.2  25856.17  18659.73  72.17
915.2  25844.13  18616.03  72.03
916.3  25883.78  18571.06  71.75
917.3  25847.25  18505.09  71.59
918.4  25819.06  18397.76  71.26
919.4  25792.96  18336.19  71.09
920.5  25804.34  18270.33  70.80
921.5  25824.68  18209.39  70.51
922.6  25820.42  18073.77  70.00
923.6  25802.74  18011.37  69.80
924.7  25837.63  17920.97  69.36
925.7  25830.51  17855.29  69.12
926.7  25889.20  17743.61  68.54
927.8  25949.67  17668.46  68.09
928.8  26061.51  17653.35  67.74
929.9  26114.55  17595.10  67.38
930.9  26214.58  17570.77  67.03
931.9  26363.30  17526.32  66.48
932.9  26568.63  17569.73  66.13
934.0  26604.58  17451.26  65.59
935.0  26610.78  17328.13  65.12
936.0  26639.41  17202.10  64.57
937.0  26632.91  17071.71  64.10
938.1  26589.57  16933.23  63.68
939.1  26594.73  16790.85  63.14
940.1  26647.30  16730.54  62.79
941.1  26757.94  16647.75  62.22
942.1  26950.86  16596.68  61.58
943.1  27064.46  16549.82  61.15
944.1  27200.04  16476.46  60.58
945.2  27250.86  16387.84  60.14
946.2  27341.46  16265.47  59.49
947.2  27385.31  16171.27  59.05
948.2  27528.14  16039.61  58.27
949.2  27562.84  15946.99  57.86
950.2  27601.23  15795.95  57.23
951.2  27696.06  15671.82  56.59
952.2  27776.58  15561.86  56.03
953.2  27874.44  15461.81  55.47
954.2  27994.28  15372.48  54.91
955.2  28013.52  15233.46  54.38
956.2  27975.49  15131.08  54.09
957.2  28074.45  15028.39  53.53
958.2  28163.05  14961.59  53.12
959.2  28188.45  14918.40  52.92
960.1  28244.69  14882.29  52.69
961.1  28322.00  14838.15  52.39
962.1  28304.06  14770.13  52.18
963.1  28357.97  14795.89  52.18
964.1  28464.51  14762.70  51.86
965.1  28543.56  14780.76  51.78
966.1  28584.14  14770.11  51.67
967.0  28655.80  14743.62  51.45
968.0  28697.14  14723.10  51.31
969.0  28718.80  14723.20  51.27
970.0  28760.47  14747.37  51.28
971.0  28834.42  14792.02  51.30
971.9  28848.78  14768.81  51.19
972.9  28890.31  14791.84  51.20
973.9  28948.56  14737.45  50.91
974.9  29046.70  14809.28  50.98
975.8  29063.68  14792.96  50.90
976.8  29052.58  14786.77  50.90
977.8  29165.54  14781.88  50.68
978.8  29197.88  14841.26  50.83
979.7  29189.32  14839.13  50.84
981.4  29653.05  16012.65  54.00
985.3  29580.67  16014.12  54.14
989.3  29694.74  16152.36  54.39
993.3  29811.28  16358.65  54.87
997.2  29873.76  16555.04  55.42
1001.2  29847.48  16772.56  56.19
1005.2  29766.32  17009.33  57.14
1009.1  29802.16  17280.08  57.98
1013.1  29912.80  17602.36  58.85
1017.1  29980.27  17940.37  59.84
1021.0  29997.45  18239.57  60.80
1025.0  29986.05  18542.63  61.84
1029.0  29874.56  18788.25  62.89
1032.9  29757.39  19024.55  63.93
1036.9  29719.10  19296.21  64.93
1040.9  29786.91  19610.91  65.84
1044.8  29914.06  19944.37  66.67
1048.8  30017.23  20240.72  67.43
1052.7  30081.05  20494.53  68.13
1056.7  30106.96  20683.02  68.70
1060.7  30124.55  20827.95  69.14
1064.6  30126.20  20934.58  69.49
1068.6  30068.46  20957.36  69.70
1072.5  30024.99  20939.13  69.74
1076.5  29992.38  20890.85  69.65
1080.4  29983.51  20825.36  69.46
1084.4  30049.89  20765.07  69.10
1088.3  30134.74  20674.60  68.61
1092.3  30115.74  20502.23  68.08
1096.2  30104.84  20297.36  67.42
1100.2  30142.18  20101.69  66.69
1104.1  30082.71  19840.89  65.95
1108.1  30052.27  19592.92  65.20
1112.0  29977.43  19320.12  64.45
1116.0  29868.35  18985.75  63.56
1119.9  29779.89  18618.61  62.52
1123.9  29822.35  18248.38  61.19
1127.8  29798.40  17706.24  59.42
1131.8  29786.58  17007.84  57.10
1135.7  29821.64  16198.00  54.32
1139.6  29831.38  15321.96  51.36
1143.6  29819.95  14489.22  48.59
1147.5  29803.64  13780.22  46.24
1151.4  29713.98  13187.66  44.38
1155.4  29731.43  12804.45  43.07
1159.3  29760.66  12557.53  42.20
1163.2  29674.15  12346.60  41.61
1167.2  29672.28  12242.50  41.26
1171.1  29681.80  12169.33  41.00
1175.0  29651.52  12093.00  40.78
1179.0  29638.87  12043.21  40.63
1182.9  29697.98  12012.90  40.45
1186.8  29706.14  11967.49  40.29
1190.7  29571.10  11873.69  40.15
1194.7  29411.94  11787.03  40.08
1198.6  29289.65  11732.49  40.06
1202.5  29196.66  11702.15  40.08
1206.4  29112.98  11701.81  40.19
1210.3  29056.59  11715.67  40.32
1214.2  29008.58  11738.60  40.47
1218.2  28915.95  11764.09  40.68
1222.1  28833.10  11811.84  40.97
1226.0  28785.60  11862.00  41.21
1229.9  28734.48  11902.74  41.42
1233.8  28673.70  11943.72  41.65
1237.7  28644.25  11991.17  41.86
1241.6  28596.57  12027.29  42.06
1245.5  28494.07  12034.66  42.24
1249.4  28422.55  12039.90  42.36
1253.3  28356.92  12056.12  42.52
1257.2  28323.43  12082.00  42.66
1261.1  28264.79  12076.13  42.72
1265.0  28184.91  12045.72  42.74
1268.9  28067.43  11983.82  42.70
1272.8  28106.70  11967.15  42.58
1276.7  28238.01  11979.76  42.42
1280.6  28297.17  11938.83  42.19
1284.5  28250.81  11826.35  41.86
1288.4  28234.52  11715.93  41.50
1292.3  28165.50  11562.83  41.05
1296.2  28076.33  11379.80  40.53
1300.1  27971.71  11170.83  39.94
1303.9  27830.79  10921.76  39.24
1307.8  27679.51  10649.72  38.48
1311.7  27513.83  10363.14  37.67
1315.6  27356.90  10062.28  36.78
1319.5  27190.78  9736.32  35.81
1323.3  27036.43  9417.70  34.83
1327.2  26898.46  9101.05  33.83
1331.1  26745.75  8777.42  32.82
1335.0  26551.82  8461.74  31.87
1338.8  26417.20  8187.40  30.99
1342.7  26306.22  7935.68  30.17
1346.5  26068.84  7661.01  29.39
1350.4  25867.11  7419.63  28.68
1354.3  25587.95  7173.23  28.03
1358.1  25293.52  6931.47  27.40
1362.0  25095.25  6724.17  26.79
1365.8  25024.00  6530.83  26.10
1369.7  25106.98  6345.36  25.27
1373.5  25078.13  6088.50  24.28
1377.4  24917.97  5766.89  23.14
1381.2  24782.40  5414.72  21.85
1385.1  24754.66  5052.64  20.41
1389.0  24692.16  4674.87  18.93
1392.8  24567.88  4297.57  17.49
1396.6  24460.52  3969.33  16.23
1400.5  24320.99  3682.29  15.14
1404.3  24225.89  3449.51  14.24
1408.2  24204.64  3267.45  13.50
1412.0  24174.50  3116.64  12.89
1415.8  24201.79  3010.80  12.44
1419.6  24176.54  2923.24  12.09
1423.5  24162.30  2862.11  11.85
1427.3  24156.22  2811.06  11.64
1431.1  24149.78  2773.73  11.49
1434.9  24082.82  2750.34  11.42
1438.8  24045.91  2731.70  11.36
1442.6  24021.66  2716.51  11.31
1446.4  23948.95  2700.69  11.28
1450.2  23899.20  2687.89  11.25
1454.0  23823.72  2673.68  11.22
1457.8  23805.13  2676.08  11.24
1461.6  23794.65  2686.10  11.29
1465.4  23719.51  2692.93  11.35
1469.2  23598.58  2706.49  11.47
1473.0  23505.47  2726.33  11.60
