/*** Spectra Vista SIG Data ***/
name= GB.sig
comm= SIG file reprocesed for matching/overlap;Averaged Ref/Tar of files: GD4B1,GD4B2,GD4B3,GD4B4
data=
346.4  1.00  -144.60  -14460.00
347.9  1.00  -138.68  -13868.00
349.5  1.00  -141.34  -14134.00
351.1  1.00  -139.15  -13915.00
352.6  1.00  -142.95  -14295.00
354.2  1.00  -143.34  -14334.00
355.7  1.00  -145.82  -14582.00
357.3  1.00  -151.53  -15153.00
358.8  1.00  -151.34  -15134.00
360.4  1.00  -154.42  -15442.00
361.9  1.00  -151.14  -15114.00
363.5  1.00  -149.58  -14958.00
365.1  1.00  -143.55  -14355.00
366.6  1.00  -141.55  -14155.00
368.2  1.00  -135.31  -13531.00
369.7  1.00  -133.54  -13354.00
371.3  1.00  -127.75  -12775.00
372.8  1.00  -133.13  -13313.00
374.4  1.00  -129.83  -12983.00
375.9  1.00  -123.46  -12346.00
377.4  1.00  -125.22  -12522.00
379.0  1.00  -115.52  -11552.00
380.5  1.00  -115.41  -11541.00
382.1  1.00  -101.65  -10165.00
383.6  1.00  -92.99  -9299.00
385.2  1.00  -84.98  -8498.00
386.7  1.00  -82.31  -8231.00
388.3  1.00  -77.72  -7772.00
389.8  1.00  -72.47  -7247.00
391.3  1.00  -70.74  -7074.00
392.9  1.00  -65.43  -6543.00
394.4  1.00  -69.44  -6944.00
395.9  1.00  -76.30  -7630.00
397.5  1.00  -73.00  -7300.00
399.0  1.00  -60.87  -6087.00
400.6  1.00  -40.47  -4047.00
402.1  1.00  -28.12  -2812.00
403.6  1.00  -14.63  -1463.00
405.1  1.00  -7.31  -731.00
406.7  1.00  3.36  336.00
408.2  1.00  14.70  1470.00
409.7  1.00  16.80  1680.00
411.3  1.00  18.82  1882.00
412.8  1.00  21.81  2181.00
414.3  1.00  22.76  2276.00
415.8  1.00  28.25  2825.00
417.4  1.00  36.69  3669.00
418.9  1.00  41.75  4175.00
420.4  1.00  46.36  4636.00
421.9  1.00  56.15  5615.00
423.5  1.00  64.92  6492.00
425.0  1.00  73.95  7395.00
426.5  1.00  83.85  8385.00
428.0  1.00  95.85  9585.00
429.5  1.00  107.44  10744.00
431.1  1.00  115.33  11533.00
432.6  1.00  125.54  12554.00
434.1  1.00  130.32  13032.00
435.6  1.00  139.51  13951.00
437.1  1.00  145.47  14547.00
438.6  1.00  152.48  15248.00
440.1  1.00  162.17  16217.00
441.6  1.00  173.42  17342.00
443.1  1.00  184.48  18448.00
444.7  1.00  194.40  19440.00
446.2  1.00  205.45  20545.00
447.7  1.00  220.93  22093.00
449.2  1.00  237.17  23717.00
450.7  1.00  259.58  25958.00
452.2  1.00  287.29  28729.00
453.7  1.00  305.64  30564.00
455.2  1.00  328.13  32813.00
456.7  1.00  348.31  34831.00
458.2  1.00  370.47  37047.00
459.7  1.00  387.98  38798.00
461.2  1.00  407.89  40789.00
462.7  1.00  422.08  42208.00
464.2  1.00  437.74  43774.00
465.7  1.00  451.54  45154.00
467.2  1.00  465.08  46508.00
468.7  1.00  477.80  47780.00
470.2  1.00  477.21  47721.00
471.7  1.00  475.95  47595.00
473.2  1.00  493.52  49352.00
474.6  1.00  529.17  52917.00
476.1  1.00  555.86  55586.00
477.6  1.00  571.98  57198.00
479.1  1.00  579.11  57911.00
480.6  1.00  594.05  59405.00
482.1  1.00  608.77  60877.00
483.6  1.00  628.44  62844.00
485.1  1.00  654.73  65473.00
486.6  1.00  684.21  68421.00
488.0  1.00  717.11  71711.00
489.5  1.00  752.91  75291.00
491.0  1.00  791.74  79174.00
492.5  1.00  838.19  83819.00
494.0  1.00  892.06  89206.00
495.4  1.00  944.13  94413.00
496.9  1.00  1001.50  100150.00
498.4  1.00  1065.43  106543.00
499.9  1.00  1132.69  113269.00
501.4  1.00  1210.34  121034.00
502.8  1.00  1288.08  128808.00
504.3  1.00  1368.36  136836.00
505.8  1.00  1454.33  145433.00
507.2  1.00  1543.04  154304.00
508.7  1.00  1629.08  162908.00
510.2  1.00  1714.58  171458.00
511.6  1.00  1806.96  180696.00
513.1  1.00  1905.72  190572.00
514.6  1.00  2012.08  201208.00
516.0  1.00  2118.15  211815.00
517.5  1.00  2234.30  223430.00
519.0  1.00  2353.99  235399.00
520.5  1.00  2472.63  247263.00
521.9  1.00  2597.90  259790.00
523.4  1.00  2726.33  272633.00
524.8  1.00  2853.32  285332.00
526.3  1.00  2985.30  298530.00
527.8  1.00  3111.29  311129.00
529.2  1.00  3229.20  322920.00
530.7  1.00  3350.33  335033.00
532.1  1.00  3464.82  346482.00
533.6  1.00  3581.88  358188.00
535.0  1.00  3699.76  369976.00
536.5  1.00  3805.81  380581.00
538.0  1.00  3914.05  391405.00
539.4  1.00  4008.73  400873.00
540.9  1.00  4130.03  413003.00
542.3  1.00  4257.02  425702.00
543.8  1.00  4366.68  436668.00
545.2  1.00  4424.23  442423.00
546.6  1.00  4453.30  445330.00
548.1  1.00  4481.52  448152.00
549.5  1.00  4508.42  450842.00
551.0  1.00  4533.58  453358.00
552.4  1.00  4563.54  456354.00
553.9  1.00  4582.40  458240.00
555.3  1.00  4602.14  460214.00
556.8  1.00  4634.22  463422.00
558.2  1.00  4664.93  466493.00
559.6  1.00  4702.69  470269.00
561.1  1.00  4751.99  475199.00
562.5  1.00  4801.57  480157.00
564.0  1.00  4865.63  486563.00
565.4  1.00  4920.83  492083.00
566.8  1.00  4985.54  498554.00
568.3  1.00  5041.12  504112.00
569.7  1.00  5091.22  509122.00
571.1  1.00  5136.28  513628.00
572.6  1.00  5172.18  517218.00
574.0  1.00  5206.58  520658.00
575.4  1.00  5238.34  523834.00
576.9  1.00  5261.43  526143.00
578.3  1.00  5281.71  528171.00
579.7  1.00  5294.54  529454.00
581.1  1.00  5302.01  530201.00
582.6  1.00  5312.50  531250.00
584.0  1.00  5317.39  531739.00
585.4  1.00  5352.16  535216.00
586.8  1.00  5414.98  541498.00
588.3  1.00  5492.21  549221.00
589.7  1.00  5554.93  555493.00
591.1  1.00  5592.46  559246.00
592.5  1.00  5600.14  560014.00
594.0  1.00  5597.06  559706.00
595.4  1.00  5582.54  558254.00
596.8  1.00  5564.77  556477.00
598.2  1.00  5554.57  555457.00
599.6  1.00  5537.46  553746.00
601.0  1.00  5537.51  553751.00
602.4  1.00  5529.61  552961.00
603.9  1.00  5527.96  552796.00
605.3  1.00  5521.61  552161.00
606.7  1.00  5506.38  550638.00
608.1  1.00  5507.06  550706.00
609.5  1.00  5501.58  550158.00
610.9  1.00  5502.45  550245.00
612.3  1.00  5494.27  549427.00
613.7  1.00  5499.08  549908.00
615.1  1.00  5476.41  547641.00
616.5  1.00  5460.05  546005.00
617.9  1.00  5476.71  547671.00
619.3  1.00  5497.13  549713.00
620.7  1.00  5539.61  553961.00
622.1  1.00  5632.22  563222.00
623.5  1.00  5764.02  576402.00
624.9  1.00  5916.75  591675.00
626.3  1.00  6006.86  600686.00
627.7  1.00  5920.54  592054.00
629.1  1.00  5796.08  579608.00
630.5  1.00  5694.25  569425.00
631.9  1.00  5630.98  563098.00
633.3  1.00  5573.50  557350.00
634.7  1.00  5539.01  553901.00
636.1  1.00  5459.22  545922.00
637.5  1.00  5364.93  536493.00
638.9  1.00  5275.25  527525.00
640.2  1.00  5191.42  519142.00
641.6  1.00  5113.37  511337.00
643.0  1.00  5025.97  502597.00
644.4  1.00  4947.11  494711.00
645.8  1.00  4867.05  486705.00
647.2  1.00  4842.69  484269.00
648.5  1.00  4826.52  482652.00
649.9  1.00  4790.90  479090.00
651.3  1.00  4770.03  477003.00
652.7  1.00  4736.12  473612.00
654.1  1.00  4579.54  457954.00
655.5  1.00  4382.24  438224.00
656.8  1.00  4186.28  418628.00
658.2  1.00  4047.14  404714.00
659.6  1.00  3935.27  393527.00
660.9  1.00  3819.76  381976.00
662.3  1.00  3702.28  370228.00
663.7  1.00  3580.92  358092.00
665.0  1.00  3467.36  346736.00
666.4  1.00  3363.27  336327.00
667.8  1.00  3279.78  327978.00
669.1  1.00  3203.90  320390.00
670.5  1.00  3150.97  315097.00
671.9  1.00  3111.82  311182.00
673.2  1.00  3094.29  309429.00
674.6  1.00  3088.87  308887.00
676.0  1.00  3107.10  310710.00
677.3  1.00  3149.62  314962.00
678.7  1.00  3220.01  322001.00
680.0  1.00  3338.65  333865.00
681.4  1.00  3508.31  350831.00
682.8  1.00  3732.59  373259.00
684.1  1.00  4032.76  403276.00
685.5  1.00  4401.14  440114.00
686.8  1.00  4840.79  484079.00
688.2  1.00  5341.34  534134.00
689.5  1.00  5873.91  587391.00
690.9  1.00  6440.41  644041.00
692.2  1.00  7026.78  702678.00
693.6  1.00  7634.14  763414.00
694.9  1.00  8223.19  822319.00
696.2  1.00  8817.95  881795.00
697.6  1.00  9381.75  938175.00
698.9  1.00  9922.18  992218.00
700.3  1.00  10423.68  1042368.00
701.6  1.00  10891.35  1089135.00
703.0  1.00  11321.84  1132184.00
704.3  1.00  11703.34  1170334.00
705.6  1.00  12049.17  1204917.00
707.0  1.00  12371.08  1237108.00
708.3  1.00  12646.31  1264631.00
709.6  1.00  12893.14  1289314.00
711.0  1.00  13102.39  1310239.00
712.3  1.00  13282.75  1328275.00
713.6  1.00  13459.91  1345991.00
714.9  1.00  13619.80  1361980.00
716.3  1.00  13775.07  1377507.00
717.6  1.00  13934.50  1393450.00
718.9  1.00  14046.77  1404677.00
720.2  1.00  14120.21  1412021.00
721.6  1.00  14179.18  1417918.00
722.9  1.00  14221.83  1422183.00
724.2  1.00  14230.45  1423045.00
725.5  1.00  14253.63  1425363.00
726.8  1.00  14266.17  1426617.00
728.1  1.00  14294.39  1429439.00
729.5  1.00  14309.43  1430943.00
730.8  1.00  14325.89  1432589.00
732.1  1.00  14325.60  1432560.00
733.4  1.00  14338.51  1433851.00
734.7  1.00  14342.51  1434251.00
736.0  1.00  14375.28  1437528.00
737.3  1.00  14396.41  1439641.00
738.6  1.00  14457.16  1445716.00
739.9  1.00  14547.58  1454758.00
741.2  1.00  14624.61  1462461.00
742.5  1.00  14760.32  1476032.00
743.8  1.00  14964.19  1496419.00
745.1  1.00  15254.62  1525462.00
746.4  1.00  15596.31  1559631.00
747.7  1.00  15942.48  1594248.00
749.0  1.00  16260.14  1626014.00
750.3  1.00  16431.74  1643174.00
751.6  1.00  16423.13  1642313.00
752.9  1.00  16307.71  1630771.00
754.2  1.00  16167.59  1616759.00
755.4  1.00  16043.12  1604312.00
756.7  1.00  16015.93  1601593.00
758.0  1.00  16064.90  1606490.00
759.3  1.00  16205.86  1620586.00
760.6  1.00  16375.44  1637544.00
761.9  1.00  16538.65  1653865.00
763.1  1.00  16644.45  1664445.00
764.4  1.00  16767.33  1676733.00
765.7  1.00  16857.10  1685710.00
767.0  1.00  16939.84  1693984.00
768.2  1.00  17020.75  1702075.00
769.5  1.00  17087.84  1708784.00
770.8  1.00  17182.66  1718266.00
772.0  1.00  17223.38  1722338.00
773.3  1.00  17277.76  1727776.00
774.6  1.00  17334.20  1733420.00
775.8  1.00  17370.03  1737003.00
777.1  1.00  17402.52  1740252.00
778.4  1.00  17403.37  1740337.00
779.6  1.00  17415.80  1741580.00
780.9  1.00  17415.20  1741520.00
782.1  1.00  17372.88  1737288.00
783.4  1.00  17390.46  1739046.00
784.6  1.00  17421.74  1742174.00
785.9  1.00  17558.13  1755813.00
787.1  1.00  17796.71  1779671.00
788.4  1.00  17942.51  1794251.00
789.6  1.00  17891.30  1789130.00
790.9  1.00  17732.51  1773251.00
792.1  1.00  17586.55  1758655.00
793.4  1.00  17411.15  1741115.00
794.6  1.00  17280.52  1728052.00
795.8  1.00  17184.73  1718473.00
797.1  1.00  17083.05  1708305.00
798.3  1.00  17023.34  1702334.00
799.5  1.00  16979.73  1697973.00
800.8  1.00  16939.27  1693927.00
802.0  1.00  16887.63  1688763.00
803.2  1.00  16825.70  1682570.00
804.5  1.00  16774.41  1677441.00
805.7  1.00  16715.61  1671561.00
806.9  1.00  16654.72  1665472.00
808.1  1.00  16609.70  1660970.00
809.4  1.00  16567.32  1656732.00
810.6  1.00  16531.52  1653152.00
811.8  1.00  16530.96  1653096.00
813.0  1.00  16537.24  1653724.00
814.2  1.00  16562.49  1656249.00
815.4  1.00  16592.18  1659218.00
816.6  1.00  16601.62  1660162.00
817.9  1.00  16600.86  1660086.00
819.1  1.00  16571.80  1657180.00
820.3  1.00  16507.15  1650715.00
821.5  1.00  16466.13  1646613.00
822.7  1.00  16424.97  1642497.00
823.9  1.00  16403.02  1640302.00
825.1  1.00  16375.23  1637523.00
826.3  1.00  16351.64  1635164.00
827.5  1.00  16331.44  1633144.00
828.7  1.00  16300.63  1630063.00
829.9  1.00  16268.50  1626850.00
831.0  1.00  16266.30  1626630.00
832.2  1.00  16261.50  1626150.00
833.4  1.00  16261.42  1626142.00
834.6  1.00  16276.41  1627641.00
835.8  1.00  16287.55  1628755.00
837.0  1.00  16321.06  1632106.00
838.1  1.00  16373.72  1637372.00
839.3  1.00  16398.75  1639875.00
840.5  1.00  16455.85  1645585.00
841.7  1.00  16507.48  1650748.00
842.9  1.00  16578.96  1657896.00
844.0  1.00  16629.52  1662952.00
845.2  1.00  16703.08  1670308.00
846.4  1.00  16748.77  1674877.00
847.5  1.00  16831.19  1683119.00
848.7  1.00  16879.46  1687946.00
849.9  1.00  16940.80  1694080.00
851.0  1.00  16948.72  1694872.00
852.2  1.00  16966.15  1696615.00
853.3  1.00  16953.95  1695395.00
854.5  1.00  16936.84  1693684.00
855.6  1.00  16936.46  1693646.00
856.8  1.00  16943.46  1694346.00
857.9  1.00  16928.15  1692815.00
859.1  1.00  16983.66  1698366.00
860.2  1.00  16982.38  1698238.00
861.4  1.00  16994.86  1699486.00
862.5  1.00  17010.99  1701099.00
863.7  1.00  17036.44  1703644.00
864.8  1.00  17053.93  1705393.00
865.9  1.00  17026.65  1702665.00
867.1  1.00  17027.68  1702768.00
868.2  1.00  17034.32  1703432.00
869.3  1.00  17012.43  1701243.00
870.5  1.00  16985.04  1698504.00
871.6  1.00  16984.00  1698400.00
872.7  1.00  16990.93  1699093.00
873.9  1.00  16978.41  1697841.00
875.0  1.00  16947.44  1694744.00
876.1  1.00  16947.04  1694704.00
877.2  1.00  16926.03  1692603.00
878.3  1.00  16894.56  1689456.00
879.4  1.00  16881.97  1688197.00
880.5  1.00  16869.67  1686967.00
881.7  1.00  16836.63  1683663.00
882.8  1.00  16819.93  1681993.00
883.9  1.00  16788.13  1678813.00
885.0  1.00  16727.33  1672733.00
886.1  1.00  16668.30  1666830.00
887.2  1.00  16577.98  1657798.00
888.3  1.00  16498.54  1649854.00
889.4  1.00  16435.74  1643574.00
890.5  1.00  16395.41  1639541.00
891.6  1.00  16338.85  1633885.00
892.7  1.00  16304.50  1630450.00
893.8  1.00  16293.95  1629395.00
894.9  1.00  16266.01  1626601.00
896.0  1.00  16231.33  1623133.00
897.0  1.00  16227.04  1622704.00
898.1  1.00  16195.55  1619555.00
899.2  1.00  16155.40  1615540.00
900.3  1.00  16106.67  1610667.00
901.4  1.00  16064.46  1606446.00
902.4  1.00  16043.13  1604313.00
903.5  1.00  15971.65  1597165.00
904.6  1.00  15949.10  1594910.00
905.7  1.00  15908.51  1590851.00
906.7  1.00  15886.19  1588619.00
907.8  1.00  15877.59  1587759.00
908.9  1.00  15816.21  1581621.00
909.9  1.00  15753.75  1575375.00
911.0  1.00  15714.56  1571456.00
912.1  1.00  15637.65  1563765.00
913.1  1.00  15567.92  1556792.00
914.2  1.00  15505.76  1550576.00
915.2  1.00  15467.52  1546752.00
916.3  1.00  15396.60  1539660.00
917.3  1.00  15324.48  1532448.00
918.4  1.00  15242.15  1524215.00
919.4  1.00  15176.55  1517655.00
920.5  1.00  15101.43  1510143.00
921.5  1.00  15032.76  1503276.00
922.6  1.00  14931.93  1493193.00
923.6  1.00  14868.64  1486864.00
924.7  1.00  14801.68  1480168.00
925.7  1.00  14706.62  1470662.00
926.7  1.00  14636.17  1463617.00
927.8  1.00  14544.67  1454467.00
928.8  1.00  14495.53  1449553.00
929.9  1.00  14415.01  1441501.00
930.9  1.00  14406.60  1440660.00
931.9  1.00  14383.33  1438333.00
932.9  1.00  14374.28  1437428.00
934.0  1.00  14278.95  1427895.00
935.0  1.00  14199.09  1419909.00
936.0  1.00  14109.77  1410977.00
937.0  1.00  13981.38  1398138.00
938.1  1.00  13886.06  1388606.00
939.1  1.00  13773.26  1377326.00
940.1  1.00  13679.35  1367935.00
941.1  1.00  13658.24  1365824.00
942.1  1.00  13631.02  1363102.00
943.1  1.00  13605.79  1360579.00
944.1  1.00  13542.81  1354281.00
945.2  1.00  13435.34  1343534.00
946.2  1.00  13336.30  1333630.00
947.2  1.00  13243.93  1324393.00
948.2  1.00  13154.22  1315422.00
949.2  1.00  13052.82  1305282.00
950.2  1.00  12937.24  1293724.00
951.2  1.00  12820.58  1282058.00
952.2  1.00  12679.60  1267960.00
953.2  1.00  12591.56  1259156.00
954.2  1.00  12492.65  1249265.00
955.2  1.00  12415.97  1241597.00
956.2  1.00  12270.39  1227039.00
957.2  1.00  12173.31  1217331.00
958.2  1.00  12116.47  1211647.00
959.2  1.00  12044.61  1204461.00
960.1  1.00  11985.49  1198549.00
961.1  1.00  11950.25  1195025.00
962.1  1.00  11900.54  1190054.00
963.1  1.00  11855.80  1185580.00
964.1  1.00  11809.79  1180979.00
965.1  1.00  11824.09  1182409.00
966.1  1.00  11775.96  1177596.00
967.0  1.00  11753.63  1175363.00
968.0  1.00  11742.86  1174286.00
969.0  1.00  11686.54  1168654.00
970.0  1.00  11674.15  1167415.00
971.0  1.00  11656.81  1165681.00
971.9  1.00  11641.07  1164107.00
972.9  1.00  11585.63  1158563.00
973.9  1.00  11538.35  1153835.00
974.9  1.00  11475.94  1147594.00
975.8  1.00  11398.41  1139841.00
976.8  1.00  11339.06  1133906.00
977.8  1.00  11312.60  1131260.00
978.8  1.00  11212.67  1121267.00
979.7  1.00  11125.68  1112568.00
981.4  1.00  13975.20  1397520.00
985.3  1.00  13859.39  1385939.00
989.3  1.00  13815.69  1381569.00
993.3  1.00  13807.72  1380772.00
997.2  1.00  13798.31  1379831.00
1001.2  1.00  13866.13  1386613.00
1005.2  1.00  14028.07  1402807.00
1009.1  1.00  14266.15  1426615.00
1013.1  1.00  14529.76  1452976.00
1017.1  1.00  14782.02  1478202.00
1021.0  1.00  14974.90  1497490.00
1025.0  1.00  15162.12  1516212.00
1029.0  1.00  15329.87  1532987.00
1032.9  1.00  15502.31  1550231.00
1036.9  1.00  15724.63  1572463.00
1040.9  1.00  15988.49  1598849.00
1044.8  1.00  16261.72  1626172.00
1048.8  1.00  16493.27  1649327.00
1052.7  1.00  16686.38  1668638.00
1056.7  1.00  16822.25  1682225.00
1060.7  1.00  16928.08  1692808.00
1064.6  1.00  17005.50  1700550.00
1068.6  1.00  17011.64  1701164.00
1072.5  1.00  16989.53  1698953.00
1076.5  1.00  16942.75  1694275.00
1080.4  1.00  16874.64  1687464.00
1084.4  1.00  16809.01  1680901.00
1088.3  1.00  16720.72  1672072.00
1092.3  1.00  16563.03  1656303.00
1096.2  1.00  16384.98  1638498.00
1100.2  1.00  16229.45  1622945.00
1104.1  1.00  16024.94  1602494.00
1108.1  1.00  15835.54  1583554.00
1112.0  1.00  15616.50  1561650.00
1116.0  1.00  15335.63  1533563.00
1119.9  1.00  15017.77  1501777.00
1123.9  1.00  14688.03  1468803.00
1127.8  1.00  14210.88  1421088.00
1131.8  1.00  13605.51  1360551.00
1135.7  1.00  12912.65  1291265.00
1139.6  1.00  12180.49  1218049.00
1143.6  1.00  11507.47  1150747.00
1147.5  1.00  10959.04  1095904.00
1151.4  1.00  10527.18  1052718.00
1155.4  1.00  10264.12  1026412.00
1159.3  1.00  10104.45  1010445.00
1163.2  1.00  9965.50  996550.00
1167.2  1.00  9896.96  989696.00
1171.1  1.00  9844.85  984485.00
1175.0  1.00  9786.43  978643.00
1179.0  1.00  9736.16  973616.00
1182.9  1.00  9713.04  971304.00
1186.8  1.00  9676.98  967698.00
1190.7  1.00  9596.25  959625.00
1194.7  1.00  9523.50  952350.00
1198.6  1.00  9480.24  948024.00
1202.5  1.00  9459.64  945964.00
1206.4  1.00  9464.82  946482.00
1210.3  1.00  9483.65  948365.00
1214.2  1.00  9507.87  950787.00
1218.2  1.00  9531.27  953127.00
1222.1  1.00  9571.19  957119.00
1226.0  1.00  9619.93  961993.00
1229.9  1.00  9660.84  966084.00
1233.8  1.00  9689.66  968966.00
1237.7  1.00  9727.07  972707.00
1241.6  1.00  9756.80  975680.00
1245.5  1.00  9766.14  976614.00
1249.4  1.00  9777.18  977718.00
1253.3  1.00  9786.57  978657.00
1257.2  1.00  9800.19  980019.00
1261.1  1.00  9795.58  979558.00
1265.0  1.00  9767.96  976796.00
1268.9  1.00  9710.85  971085.00
1272.8  1.00  9699.98  969998.00
1276.7  1.00  9703.44  970344.00
1280.6  1.00  9662.33  966233.00
1284.5  1.00  9574.77  957477.00
1288.4  1.00  9476.88  947688.00
1292.3  1.00  9341.06  934106.00
1296.2  1.00  9187.57  918757.00
1300.1  1.00  9005.44  900544.00
1303.9  1.00  8786.00  878600.00
1307.8  1.00  8554.96  855496.00
1311.7  1.00  8315.81  831581.00
1315.6  1.00  8065.45  806545.00
1319.5  1.00  7801.70  780170.00
1323.3  1.00  7533.07  753307.00
1327.2  1.00  7265.44  726544.00
1331.1  1.00  7009.56  700956.00
1335.0  1.00  6753.39  675339.00
1338.8  1.00  6521.20  652120.00
1342.7  1.00  6308.44  630844.00
1346.5  1.00  6079.09  607909.00
1350.4  1.00  5874.46  587446.00
1354.3  1.00  5664.53  566453.00
1358.1  1.00  5461.39  546139.00
1362.0  1.00  5287.10  528710.00
1365.8  1.00  5132.87  513287.00
1369.7  1.00  4972.42  497242.00
1373.5  1.00  4733.09  473309.00
1377.4  1.00  4426.17  442617.00
1381.2  1.00  4092.06  409206.00
1385.1  1.00  3771.44  377144.00
1389.0  1.00  3446.89  344689.00
1392.8  1.00  3124.03  312403.00
1396.6  1.00  2844.07  284407.00
1400.5  1.00  2602.18  260218.00
1404.3  1.00  2412.90  241290.00
1408.2  1.00  2274.37  227437.00
1412.0  1.00  2161.12  216112.00
1415.8  1.00  2079.67  207967.00
1419.6  1.00  2016.09  201609.00
1423.5  1.00  1964.66  196466.00
1427.3  1.00  1927.68  192768.00
1431.1  1.00  1897.78  189778.00
1434.9  1.00  1870.85  187085.00
1438.8  1.00  1856.05  185605.00
