/*** Spectra Vista SIG Data ***/
name= B.sig
comm= Averaged Ref/Tar of files: RD3B1,RD3B2,RD3B3
data=
346.4  598.78  166.68  27.84
347.9  627.50  164.20  26.17
349.5  677.04  165.88  24.50
351.1  739.44  171.60  23.21
352.6  790.63  178.15  22.53
354.2  841.03  187.08  22.24
355.7  912.59  193.07  21.16
357.3  974.37  202.85  20.82
358.8  992.58  206.21  20.77
360.4  1062.29  216.92  20.42
361.9  1117.88  210.69  18.85
363.5  1149.55  212.37  18.47
365.1  1196.29  214.41  17.92
366.6  1260.16  215.78  17.12
368.2  1349.72  220.47  16.33
369.7  1403.95  216.03  15.39
371.3  1488.21  221.14  14.86
372.8  1577.00  228.53  14.49
374.4  1638.71  234.18  14.29
375.9  1688.10  237.22  14.05
377.4  1740.09  239.06  13.74
379.0  1788.57  239.22  13.37
380.5  1855.73  237.48  12.80
382.1  1905.98  229.51  12.04
383.6  1973.16  232.94  11.81
385.2  2065.25  238.34  11.54
386.7  2149.76  237.36  11.04
388.3  2271.83  246.84  10.87
389.8  2363.45  253.91  10.74
391.3  2453.59  260.86  10.63
392.9  2526.36  270.75  10.72
394.4  2602.50  280.92  10.79
395.9  2690.98  293.59  10.91
397.5  2829.48  307.93  10.88
399.0  2963.31  306.94  10.36
400.6  3033.76  302.81  9.98
402.1  3072.78  288.96  9.40
403.6  3116.75  284.51  9.13
405.1  3199.00  286.39  8.95
406.7  3304.00  293.81  8.89
408.2  3412.53  302.94  8.88
409.7  3521.28  309.12  8.78
411.3  3642.17  319.39  8.77
412.8  3732.75  331.41  8.88
414.3  3845.02  342.24  8.90
415.8  3965.00  354.58  8.94
417.4  4085.95  363.06  8.89
418.9  4192.21  374.44  8.93
420.4  4267.16  374.71  8.78
421.9  4346.32  377.52  8.69
423.5  4413.15  379.83  8.61
425.0  4492.75  384.32  8.55
426.5  4594.55  387.72  8.44
428.0  4712.54  386.56  8.20
429.5  4856.53  397.96  8.19
431.1  5025.20  408.61  8.13
432.6  5198.44  421.03  8.10
434.1  5370.75  427.99  7.97
435.6  5520.56  440.86  7.99
437.1  5670.60  450.78  7.95
438.6  5806.58  462.76  7.97
440.1  5943.54  471.50  7.93
441.6  6091.61  481.60  7.91
443.1  6230.93  493.43  7.92
444.7  6356.12  505.87  7.96
446.2  6474.98  516.78  7.98
447.7  6582.53  530.03  8.05
449.2  6691.68  541.44  8.09
450.7  6814.08  541.84  7.95
452.2  6930.56  543.98  7.85
453.7  7066.33  550.68  7.79
455.2  7233.85  562.43  7.78
456.7  7443.04  577.28  7.76
458.2  7673.27  591.53  7.71
459.7  7920.50  610.17  7.70
461.2  8156.07  629.22  7.71
462.7  8366.46  643.21  7.69
464.2  8568.06  660.02  7.70
465.7  8788.58  678.09  7.72
467.2  8970.50  696.53  7.76
468.7  9176.00  709.33  7.73
470.2  9305.26  728.62  7.83
471.7  9490.50  754.07  7.95
473.2  9788.42  774.49  7.91
474.6  10042.30  778.88  7.76
476.1  10127.24  768.85  7.59
477.6  10169.21  765.06  7.52
479.1  10224.56  768.48  7.52
480.6  10293.47  767.44  7.46
482.1  10426.95  777.26  7.45
483.6  10590.11  783.75  7.40
485.1  10796.39  797.37  7.39
486.6  11041.55  813.32  7.37
488.0  11290.50  830.92  7.36
489.5  11568.25  851.91  7.36
491.0  11840.59  875.05  7.39
492.5  12119.22  898.83  7.42
494.0  12409.65  925.14  7.46
495.4  12660.45  951.78  7.52
496.9  12912.44  978.34  7.58
498.4  13155.80  1005.07  7.64
499.9  13408.52  1035.65  7.72
501.4  13645.90  1067.65  7.82
502.8  13864.50  1101.61  7.95
504.3  14081.40  1128.60  8.01
505.8  14291.05  1160.46  8.12
507.2  14436.37  1188.87  8.24
508.7  14548.87  1218.78  8.38
510.2  14651.50  1246.84  8.51
511.6  14718.08  1271.12  8.64
513.1  14838.45  1301.52  8.77
514.6  14986.45  1333.13  8.90
516.0  15112.04  1359.75  9.00
517.5  15305.31  1394.38  9.11
519.0  15537.89  1432.93  9.22
520.5  15768.60  1472.99  9.34
521.9  16045.99  1520.05  9.47
523.4  16363.11  1564.96  9.56
524.8  16675.79  1613.79  9.68
526.3  17027.53  1664.76  9.78
527.8  17380.80  1717.31  9.88
529.2  17706.86  1766.76  9.98
530.7  18056.71  1818.72  10.07
532.1  18377.28  1862.55  10.14
533.6  18738.23  1916.48  10.23
535.0  19114.67  1966.97  10.29
536.5  19476.07  2017.46  10.36
538.0  19846.24  2067.55  10.42
539.4  20198.95  2121.39  10.50
540.9  20626.19  2179.61  10.57
542.3  20984.92  2237.14  10.66
543.8  21250.33  2280.45  10.73
545.2  21329.19  2299.98  10.78
546.6  21331.64  2317.18  10.86
548.1  21362.06  2337.40  10.94
549.5  21376.46  2359.35  11.04
551.0  21386.66  2380.50  11.13
552.4  21443.54  2407.52  11.23
553.9  21463.89  2432.91  11.33
555.3  21521.57  2461.10  11.44
556.8  21650.10  2502.51  11.56
558.2  21773.81  2542.78  11.68
559.6  21936.94  2591.67  11.81
561.1  22168.25  2653.36  11.97
562.5  22423.78  2716.51  12.11
564.0  22757.43  2794.88  12.28
565.4  23059.14  2874.27  12.46
566.8  23449.52  2966.52  12.65
568.3  23818.66  3060.61  12.85
569.7  24198.01  3162.63  13.07
571.1  24579.14  3264.23  13.28
572.6  24952.86  3370.41  13.51
574.0  25317.60  3482.60  13.76
575.4  25678.69  3592.97  13.99
576.9  26008.29  3712.75  14.28
578.3  26306.64  3826.14  14.54
579.7  26593.28  3948.99  14.85
581.1  26823.10  4064.69  15.15
582.6  27065.10  4190.96  15.48
584.0  27286.52  4318.09  15.82
585.4  27587.92  4461.24  16.17
586.8  27978.96  4622.19  16.52
588.3  28419.30  4796.22  16.88
589.7  28786.68  4962.36  17.24
591.1  29016.81  5108.03  17.60
592.5  29127.43  5236.18  17.98
594.0  29186.34  5356.12  18.35
595.4  29194.56  5466.71  18.73
596.8  29193.45  5582.00  19.12
598.2  29177.08  5688.91  19.50
599.6  29153.88  5797.73  19.89
601.0  29216.28  5916.92  20.25
602.4  29261.60  6031.65  20.61
603.9  29364.60  6160.29  20.98
605.3  29484.10  6284.85  21.32
606.7  29584.80  6407.40  21.66
608.1  29785.49  6549.68  21.99
609.5  30013.28  6692.74  22.30
610.9  30296.78  6850.58  22.61
612.3  30557.28  6993.86  22.89
613.7  30914.00  7165.71  23.18
615.1  31159.08  7308.63  23.46
616.5  31406.64  7445.33  23.71
617.9  31801.61  7622.83  23.97
619.3  32170.62  7798.16  24.24
620.7  32635.92  7998.56  24.51
622.1  33083.75  8149.30  24.63
623.5  33564.04  8285.59  24.69
624.9  34116.86  8423.10  24.69
626.3  34490.69  8525.01  24.72
627.7  34145.81  8525.15  24.97
629.1  33851.16  8585.82  25.36
630.5  33743.57  8723.83  25.85
631.9  33775.53  8904.84  26.36
633.3  33808.52  9079.46  26.86
634.7  33992.91  9249.53  27.21
636.1  34075.08  9359.08  27.47
637.5  34196.58  9448.69  27.63
638.9  34374.61  9499.95  27.64
640.2  34545.58  9486.90  27.46
641.6  34634.34  9411.87  27.17
643.0  34657.83  9298.75  26.83
644.4  34696.37  9164.87  26.41
645.8  34653.86  8978.99  25.91
647.2  34834.41  8838.90  25.37
648.5  34958.93  8671.06  24.80
649.9  34861.32  8454.65  24.25
651.3  34789.65  8271.78  23.78
652.7  34680.00  8088.18  23.32
654.1  34452.30  7947.03  23.07
655.5  34172.42  7817.36  22.88
656.8  33904.63  7689.29  22.68
658.2  34070.04  7631.55  22.40
659.6  34442.82  7593.61  22.05
660.9  34748.70  7510.88  21.61
662.3  35067.95  7412.83  21.14
663.7  35364.00  7309.40  20.67
665.0  35617.00  7182.20  20.17
666.4  35877.31  7066.78  19.70
667.8  36209.10  6979.81  19.28
669.1  36482.80  6902.22  18.92
670.5  36799.72  6857.02  18.63
671.9  36995.40  6815.98  18.42
673.2  37270.13  6823.82  18.31
674.6  37530.47  6854.11  18.26
676.0  37841.78  6928.02  18.31
677.3  38141.57  7047.58  18.48
678.7  38483.75  7230.31  18.79
680.0  38922.37  7506.41  19.29
681.4  39389.45  7866.58  19.97
682.8  39844.35  8344.32  20.94
684.1  40287.78  8952.45  22.22
685.5  40705.56  9692.49  23.81
686.8  41091.84  10571.44  25.73
688.2  41433.89  11571.56  27.93
689.5  41549.57  12611.38  30.35
690.9  41633.44  13720.60  32.96
692.2  41697.60  14881.38  35.69
693.6  41771.65  16061.53  38.45
694.9  41721.88  17185.99  41.19
696.2  41751.90  18304.41  43.84
697.6  41766.04  19369.51  46.38
698.9  41796.48  20399.28  48.81
700.3  41844.24  21378.69  51.09
701.6  41918.48  22314.99  53.23
703.0  41979.40  23187.54  55.24
704.3  41981.71  23954.10  57.06
705.6  41967.18  24645.47  58.73
707.0  41980.75  25297.40  60.26
708.3  41872.71  25817.90  61.66
709.6  41753.67  26289.24  62.96
711.0  41589.99  26678.55  64.15
712.3  41418.66  27016.35  65.23
713.6  41354.04  27401.78  66.26
714.9  41240.96  27719.13  67.21
716.3  41218.54  28075.03  68.11
717.6  41221.95  28423.93  68.95
718.9  41134.56  28666.25  69.69
720.2  40936.00  28797.68  70.35
721.6  40765.66  28947.19  71.01
722.9  40572.15  29059.47  71.62
724.2  40305.71  29095.10  72.19
725.5  40134.57  29169.76  72.68
726.8  39960.91  29213.46  73.11
728.1  39855.98  29303.35  73.52
729.5  39766.23  29364.30  73.84
730.8  39707.44  29436.79  74.13
732.1  39612.07  29464.93  74.38
733.4  39556.45  29513.79  74.61
734.7  39507.57  29552.95  74.80
736.0  39511.29  29633.03  75.00
737.3  39463.58  29658.92  75.16
738.6  39569.04  29828.22  75.38
739.9  39770.92  30074.78  75.62
741.2  39928.98  30277.98  75.83
742.5  40206.42  30588.58  76.08
743.8  40696.43  31039.66  76.27
745.1  41398.16  31675.77  76.51
746.4  42245.84  32372.87  76.63
747.7  43136.62  33076.88  76.68
749.0  43980.49  33741.94  76.72
750.3  44484.44  34122.18  76.71
751.6  44396.66  34065.84  76.73
752.9  43969.12  33747.77  76.75
754.2  43470.53  33419.63  76.88
755.4  42928.75  33070.26  77.04
756.7  42746.48  33003.62  77.21
758.0  42774.71  33106.01  77.40
759.3  43048.01  33400.83  77.59
760.6  43418.76  33778.87  77.80
761.9  43775.94  34124.15  77.95
763.1  43996.61  34342.02  78.06
764.4  44239.34  34597.14  78.20
765.7  44424.25  34797.21  78.33
767.0  44583.75  34961.91  78.42
768.2  44688.00  35104.72  78.56
769.5  44782.92  35205.38  78.61
770.8  44990.42  35415.87  78.72
772.0  45014.41  35485.45  78.83
773.3  45100.97  35603.02  78.94
774.6  45226.84  35754.85  79.06
775.8  45313.45  35890.59  79.21
777.1  45344.81  35966.58  79.32
778.4  45245.88  35944.55  79.44
779.6  45226.44  35984.39  79.56
780.9  45132.00  35962.00  79.68
782.1  44952.26  35863.79  79.78
783.4  44936.32  35913.97  79.92
784.6  44935.72  35979.11  80.07
785.9  45255.62  36307.37  80.23
787.1  45836.93  36871.49  80.44
788.4  46288.94  37295.43  80.57
789.6  46219.23  37219.91  80.53
790.9  45788.99  36826.71  80.43
792.1  45296.16  36439.77  80.45
793.4  44771.54  36088.32  80.61
794.6  44415.30  35874.50  80.77
795.8  44134.47  35690.27  80.87
797.1  43801.05  35491.32  81.03
798.3  43569.08  35369.81  81.18
799.5  43411.48  35316.96  81.35
800.8  43273.13  35231.23  81.42
802.0  43071.08  35129.44  81.56
803.2  42890.28  35012.67  81.63
804.5  42742.15  34939.33  81.74
805.7  42601.95  34849.63  81.80
806.9  42426.40  34745.97  81.90
808.1  42305.67  34696.78  82.01
809.4  42221.44  34670.28  82.12
810.6  42105.70  34617.92  82.22
811.8  42062.43  34618.40  82.30
813.0  42071.08  34640.72  82.34
814.2  42081.20  34673.54  82.40
815.4  42185.03  34779.36  82.44
816.6  42225.34  34804.04  82.42
817.9  42273.21  34829.09  82.39
819.1  42166.58  34735.76  82.38
820.3  42039.03  34571.64  82.24
821.5  41905.07  34446.33  82.20
822.7  41849.58  34366.02  82.12
823.9  41838.35  34344.22  82.09
825.1  41851.34  34303.71  81.97
826.3  41890.94  34286.79  81.85
827.5  41937.05  34269.20  81.72
828.7  42011.28  34244.84  81.51
829.9  42039.57  34223.64  81.41
831.0  42140.75  34241.17  81.25
832.2  42235.78  34273.53  81.15
833.4  42305.18  34290.48  81.06
834.6  42417.19  34329.69  80.93
835.8  42496.65  34375.16  80.89
837.0  42597.61  34440.42  80.85
838.1  42745.68  34567.17  80.87
839.3  42856.00  34631.38  80.81
840.5  42989.60  34725.28  80.78
841.7  43156.80  34841.79  80.73
842.9  43298.86  34985.88  80.80
844.0  43430.88  35080.63  80.77
845.2  43568.90  35205.97  80.81
846.4  43732.15  35292.85  80.70
847.5  43960.00  35488.54  80.73
848.7  44164.79  35661.76  80.75
849.9  44393.85  35822.65  80.69
851.0  44478.08  35875.34  80.66
852.2  44569.63  35936.86  80.63
853.3  44562.81  35910.53  80.58
854.5  44594.90  35916.02  80.54
855.6  44615.97  35928.75  80.53
856.8  44687.86  35972.72  80.50
857.9  44681.40  35990.62  80.55
859.1  44832.20  36125.33  80.58
860.2  44876.88  36155.01  80.56
861.4  44954.55  36198.17  80.52
862.5  45021.69  36252.41  80.52
863.7  45150.84  36340.92  80.49
864.8  45213.35  36362.20  80.42
865.9  45167.77  36320.67  80.41
867.1  45241.43  36368.22  80.39
868.2  45295.54  36391.70  80.34
869.3  45314.27  36397.92  80.32
870.5  45282.48  36345.43  80.26
871.6  45315.83  36351.61  80.22
872.7  45413.27  36433.52  80.23
873.9  45478.16  36461.54  80.17
875.0  45456.71  36404.82  80.09
876.1  45452.45  36386.61  80.05
877.2  45498.99  36371.52  79.94
878.3  45519.98  36333.68  79.82
879.4  45563.53  36344.75  79.77
880.5  45631.08  36345.06  79.65
881.7  45596.20  36275.85  79.56
882.8  45693.96  36277.76  79.39
883.9  45722.91  36277.94  79.34
885.0  45675.63  36180.58  79.21
886.1  45712.78  36127.02  79.03
887.2  45537.58  35967.89  78.99
888.3  45475.07  35829.12  78.79
889.4  45347.40  35697.58  78.72
890.5  45259.13  35590.76  78.64
891.6  45193.70  35491.51  78.53
892.7  45201.31  35430.01  78.38
893.8  45270.56  35411.82  78.22
894.9  45248.28  35366.58  78.16
896.0  45235.90  35308.90  78.06
897.0  45257.72  35292.77  77.98
898.1  45230.13  35230.58  77.89
899.2  45252.30  35191.56  77.77
900.3  45165.90  35049.74  77.60
901.4  45101.16  34932.03  77.45
902.4  45077.20  34901.69  77.43
903.5  45018.01  34791.11  77.28
904.6  45035.56  34741.76  77.14
905.7  45038.93  34684.33  77.01
906.7  44985.82  34610.52  76.94
907.8  45025.57  34593.21  76.83
908.9  44904.57  34467.97  76.76
909.9  44897.74  34393.29  76.60
911.0  44830.08  34257.60  76.42
912.1  44749.25  34129.09  76.27
913.1  44707.00  33988.85  76.03
914.2  44554.62  33804.79  75.87
915.2  44505.45  33712.92  75.75
916.3  44491.35  33637.35  75.60
917.3  44461.10  33528.52  75.41
918.4  44383.35  33324.82  75.08
919.4  44330.69  33210.44  74.92
920.5  44315.70  33100.77  74.69
921.5  44285.78  32997.05  74.51
922.6  44268.10  32824.54  74.15
923.6  44262.16  32700.85  73.88
924.7  44333.00  32585.04  73.50
925.7  44276.22  32431.58  73.25
926.7  44252.98  32297.51  72.98
927.8  44374.33  32174.34  72.51
928.8  44502.63  32102.25  72.14
929.9  44598.23  32025.18  71.81
930.9  44802.27  31995.64  71.42
931.9  45011.35  31970.01  71.03
932.9  45355.12  32043.66  70.65
934.0  45370.16  31910.66  70.33
935.0  45397.97  31730.27  69.89
936.0  45413.73  31537.31  69.44
937.0  45319.95  31313.59  69.09
938.1  45295.44  31090.85  68.64
939.1  45257.91  30894.99  68.26
940.1  45342.90  30770.85  67.86
941.1  45568.46  30741.90  67.46
942.1  45803.34  30702.19  67.03
943.1  45999.43  30609.21  66.54
944.1  46171.28  30587.99  66.25
945.2  46338.18  30421.23  65.65
946.2  46411.22  30305.37  65.30
947.2  46518.25  30129.42  64.77
948.2  46693.82  30034.61  64.32
949.2  46838.19  29846.51  63.72
950.2  46912.95  29650.19  63.20
951.2  46909.80  29445.36  62.77
952.2  47054.57  29297.12  62.26
953.2  47260.85  29200.39  61.79
954.2  47365.65  29062.09  61.36
955.2  47408.68  28868.70  60.89
956.2  47434.65  28656.48  60.41
957.2  47543.77  28534.78  60.02
958.2  47601.59  28413.10  59.69
959.2  47735.55  28366.05  59.42
960.1  47775.14  28281.57  59.20
961.1  47870.63  28203.05  58.92
962.1  47933.44  28161.56  58.75
963.1  48032.50  28139.06  58.58
964.1  48057.21  28097.19  58.47
965.1  48243.99  28159.91  58.37
966.1  48335.33  28105.44  58.15
967.0  48410.39  28180.39  58.21
968.0  48434.88  28125.49  58.07
969.0  48556.60  28169.53  58.01
970.0  48603.65  28120.37  57.86
971.0  48737.12  28139.47  57.74
971.9  48722.90  28132.38  57.74
972.9  48879.95  28148.59  57.59
973.9  48859.53  28135.52  57.58
974.9  49044.08  28122.02  57.34
975.8  49101.73  28075.02  57.18
976.8  49135.91  28062.66  57.11
977.8  49315.41  28087.70  56.96
978.8  49372.50  28119.63  56.95
979.7  49504.50  28113.67  56.79
980.7  49626.72  28107.23  56.64
981.7  49868.69  28187.91  56.52
982.6  50026.42  28333.90  56.64
983.6  50542.44  28567.47  56.52
984.6  51139.74  28779.94  56.28
985.5  51570.00  29085.48  56.40
986.5  52881.11  29720.92  56.20
987.5  53801.49  30123.95  55.99
988.4  54737.10  30854.08  56.37
989.4  56052.04  31646.31  56.46
990.4  57074.27  32210.72  56.44
991.3  59136.61  33459.62  56.58
992.3  61232.97  33779.21  55.17
993.2  62381.81  35230.02  56.47
994.2  63759.15  35801.27  56.15
995.2  64627.45  36696.82  56.78
996.1  65405.36  37338.10  57.09
997.1  65143.00  37185.80  57.08
998.0  67149.60  37628.90  56.04
999.0  66846.51  37578.58  56.22
1000.0  67127.69  37939.02  56.52
1000.9  65712.83  38234.12  58.18
1001.9  66491.34  37232.45  56.00
1002.8  64393.95  37841.90  58.77
1003.8  65025.46  37313.27  57.38
1004.8  66172.20  37801.82  57.13
961.5  59748.86  29745.52  49.78
965.5  58598.35  29284.96  49.98
969.5  56260.49  28699.51  51.01
973.4  53913.29  27963.39  51.87
977.4  51859.95  27308.18  52.66
981.4  50850.20  27236.17  53.56
985.3  50481.20  27421.56  54.32
989.3  50535.22  27800.45  55.01
993.3  50635.09  28235.82  55.76
997.2  50595.02  28580.21  56.49
1001.2  50545.04  28882.88  57.14
1005.2  50473.33  29158.85  57.77
1009.1  50535.74  29550.08  58.47
1013.1  50697.93  30043.00  59.26
1017.1  50843.90  30535.24  60.06
1021.0  50855.49  30959.98  60.88
1025.0  50816.26  31368.13  61.73
1029.0  50641.08  31674.14  62.55
1032.9  50496.42  31974.67  63.32
1036.9  50486.34  32362.77  64.10
1040.9  50614.23  32824.55  64.85
1044.8  50848.91  33338.28  65.56
1048.8  51055.33  33799.47  66.20
1052.7  51200.97  34195.07  66.79
1056.7  51265.76  34486.99  67.27
1060.7  51328.86  34700.24  67.60
1064.6  51364.29  34865.29  67.88
1068.6  51285.22  34895.55  68.04
1072.5  51205.93  34871.68  68.10
1076.5  51155.97  34809.29  68.05
1080.4  51154.95  34713.27  67.86
1084.4  51258.31  34646.82  67.59
1088.3  51367.47  34539.47  67.24
1092.3  51376.13  34305.10  66.77
1096.2  51342.58  34010.63  66.24
1100.2  51360.86  33737.23  65.69
1104.1  51244.60  33364.73  65.11
1108.1  51175.76  33001.58  64.49
1112.0  51059.75  32587.35  63.82
1116.0  50831.30  32071.57  63.09
1119.9  50653.13  31498.51  62.18
1123.9  50703.41  30963.52  61.07
1127.8  50649.60  30178.56  59.58
1131.8  50608.23  29176.98  57.65
1135.7  50617.81  28020.60  55.36
1139.6  50606.06  26750.56  52.86
1143.6  50555.26  25526.95  50.49
1147.5  50517.05  24489.14  48.48
1151.4  50365.69  23621.75  46.90
1155.4  50355.11  23052.66  45.78
1159.3  50376.78  22674.10  45.01
1163.2  50207.59  22338.39  44.49
1167.2  50161.80  22152.14  44.16
1171.1  50174.37  22034.04  43.91
1175.0  50101.08  21885.23  43.68
1179.0  50065.70  21762.01  43.47
1182.9  50165.17  21705.63  43.27
1186.8  50159.61  21605.84  43.07
1190.7  49934.95  21422.08  42.90
1194.7  49665.47  21242.15  42.77
1198.6  49438.62  21120.33  42.72
1202.5  49264.40  21056.73  42.74
1206.4  49122.14  21024.52  42.80
1210.3  49037.26  21032.71  42.89
1214.2  48930.30  21066.84  43.05
1218.2  48765.56  21096.10  43.26
1222.1  48630.48  21153.23  43.50
1226.0  48538.40  21243.21  43.77
1229.9  48450.48  21336.74  44.04
1233.8  48352.03  21415.00  44.29
1237.7  48317.50  21490.90  44.48
1241.6  48229.08  21541.19  44.66
1245.5  48061.09  21558.86  44.86
1249.4  47934.98  21573.98  45.01
1253.3  47803.87  21572.76  45.13
1257.2  47735.46  21581.02  45.21
1261.1  47624.11  21575.48  45.30
1265.0  47490.52  21541.13  45.36
1268.9  47304.07  21447.69  45.34
1272.8  47372.70  21442.45  45.26
1276.7  47590.81  21465.48  45.10
1280.6  47691.16  21414.61  44.90
1284.5  47615.01  21263.87  44.66
1288.4  47591.67  21106.10  44.35
1292.3  47467.75  20870.67  43.97
1296.2  47318.59  20591.12  43.52
1300.1  47148.87  20265.32  42.98
1303.9  46897.39  19882.41  42.40
1307.8  46639.44  19473.82  41.75
1311.7  46386.67  19024.85  41.01
1315.6  46123.85  18546.10  40.21
1319.5  45848.18  18027.09  39.32
1323.3  45606.50  17507.05  38.39
1327.2  45386.16  16993.89  37.44
1331.1  45132.53  16472.83  36.50
1335.0  44824.46  15927.16  35.53
1338.8  44600.56  15437.12  34.61
1342.7  44421.07  14994.32  33.75
1346.5  44042.02  14506.65  32.94
1350.4  43720.62  14071.71  32.19
1354.3  43279.60  13617.55  31.46
1358.1  42799.92  13153.71  30.73
1362.0  42533.76  12754.44  29.99
