/*** Spectra Vista SIG Data ***/
name= GS.sig
comm= Averaged Ref/Tar of files: GD2S7,GD2S8,GD2S9
data=
346.4  509.60  198.00  38.85
347.9  549.06  195.05  35.52
349.5  608.40  198.64  32.65
351.1  655.20  197.08  30.08
352.6  708.40  213.47  30.13
354.2  752.68  219.26  29.13
355.7  818.30  228.99  27.98
357.3  873.81  237.52  27.18
358.8  891.23  241.74  27.12
360.4  967.31  245.05  25.33
361.9  1009.93  249.58  24.71
363.5  1059.53  245.84  23.20
365.1  1102.67  251.97  22.85
366.6  1156.59  250.31  21.64
368.2  1218.77  253.49  20.80
369.7  1306.00  253.58  19.42
371.3  1379.56  260.11  18.85
372.8  1457.48  261.73  17.96
374.4  1528.58  274.79  17.98
375.9  1575.56  279.14  17.72
377.4  1632.76  275.38  16.87
379.0  1683.54  283.25  16.82
380.5  1741.87  280.57  16.11
382.1  1805.51  286.64  15.88
383.6  1862.60  277.83  14.92
385.2  1949.75  281.42  14.43
386.7  2036.04  287.45  14.12
388.3  2135.96  301.64  14.12
389.8  2212.47  310.64  14.04
391.3  2314.34  326.31  14.10
392.9  2392.65  338.56  14.15
394.4  2474.90  352.14  14.23
395.9  2552.82  372.09  14.58
397.5  2664.75  388.68  14.59
399.0  2774.82  390.89  14.09
400.6  2852.64  390.54  13.69
402.1  2910.24  385.71  13.25
403.6  2965.71  386.00  13.02
405.1  3036.77  393.02  12.94
406.7  3133.76  406.56  12.97
408.2  3234.33  417.29  12.90
409.7  3330.88  430.83  12.93
411.3  3437.91  449.06  13.06
412.8  3528.93  465.71  13.20
414.3  3634.54  482.98  13.29
415.8  3740.00  498.33  13.32
417.4  3868.37  515.28  13.32
418.9  3954.39  532.14  13.46
420.4  4037.85  538.79  13.34
421.9  4106.74  547.73  13.34
423.5  4196.00  550.67  13.12
425.0  4263.51  556.26  13.05
426.5  4364.50  554.70  12.71
428.0  4488.82  565.46  12.60
429.5  4615.58  579.01  12.54
431.1  4756.23  595.66  12.52
432.6  4917.76  612.64  12.46
434.1  5064.68  633.97  12.52
435.6  5199.35  652.10  12.54
437.1  5333.25  673.08  12.62
438.6  5454.84  692.34  12.69
440.1  5584.70  712.38  12.76
441.6  5717.14  738.92  12.92
443.1  5852.25  764.44  13.06
444.7  5982.11  795.29  13.29
446.2  6104.50  829.37  13.59
447.7  6213.60  859.04  13.83
449.2  6315.84  887.04  14.04
450.7  6414.72  909.31  14.18
452.2  6543.45  939.93  14.36
453.7  6682.65  972.54  14.55
455.2  6842.54  1006.40  14.71
456.7  7029.44  1044.56  14.86
458.2  7231.16  1085.20  15.01
459.7  7428.75  1125.25  15.15
461.2  7633.63  1169.31  15.32
462.7  7815.14  1202.28  15.38
464.2  8000.76  1239.52  15.49
465.7  8191.53  1275.76  15.57
467.2  8352.58  1309.32  15.68
468.7  8552.00  1352.00  15.81
470.2  8711.17  1390.87  15.97
471.7  8854.00  1428.17  16.13
473.2  9050.37  1461.60  16.15
474.6  9252.88  1489.83  16.10
476.1  9378.88  1511.91  16.12
477.6  9464.51  1534.35  16.21
479.1  9567.20  1554.70  16.25
480.6  9658.16  1576.81  16.33
482.1  9797.74  1604.47  16.38
483.6  9963.22  1643.65  16.50
485.1  10140.49  1688.40  16.65
486.6  10356.19  1743.60  16.84
488.0  10562.50  1809.44  17.13
489.5  10784.97  1879.59  17.43
491.0  10998.86  1962.41  17.84
492.5  11224.98  2051.73  18.28
494.0  11462.99  2154.12  18.79
495.4  11663.85  2253.90  19.32
496.9  11870.36  2370.57  19.97
498.4  12074.30  2489.95  20.62
499.9  12278.41  2626.34  21.39
501.4  12476.75  2772.23  22.22
502.8  12664.51  2926.69  23.11
504.3  12846.60  3094.50  24.09
505.8  13033.73  3270.31  25.09
507.2  13172.68  3443.12  26.14
508.7  13289.99  3622.76  27.26
510.2  13412.81  3809.24  28.40
511.6  13494.72  3990.86  29.57
513.1  13630.43  4189.74  30.74
514.6  13795.53  4407.06  31.95
516.0  13946.28  4621.73  33.14
517.5  14135.83  4868.22  34.44
519.0  14365.19  5122.93  35.66
520.5  14579.60  5384.39  36.93
521.9  14828.55  5660.15  38.17
523.4  15093.49  5954.14  39.45
524.8  15349.14  6239.35  40.65
526.3  15633.70  6531.77  41.78
527.8  15915.89  6821.32  42.86
529.2  16178.21  7089.63  43.82
530.7  16455.24  7355.92  44.70
532.1  16698.15  7601.23  45.52
533.6  16994.07  7860.85  46.26
535.0  17295.55  8113.01  46.91
536.5  17581.25  8348.62  47.49
538.0  17895.84  8589.12  48.00
539.4  18160.64  8816.67  48.55
540.9  18488.86  9052.67  48.96
542.3  18738.28  9261.63  49.43
543.8  18940.29  9428.11  49.78
545.2  19020.35  9528.89  50.10
546.6  19057.19  9596.70  50.36
548.1  19121.11  9661.75  50.53
549.5  19166.91  9718.59  50.71
551.0  19217.70  9762.81  50.80
552.4  19311.21  9812.04  50.81
553.9  19371.38  9841.42  50.80
555.3  19461.20  9871.88  50.73
556.8  19596.88  9920.74  50.62
558.2  19743.75  9961.03  50.45
559.6  19902.71  10004.51  50.27
561.1  20117.50  10070.67  50.06
562.5  20332.52  10135.01  49.85
564.0  20611.34  10225.37  49.61
565.4  20865.50  10290.18  49.32
566.8  21177.73  10376.39  49.00
568.3  21463.05  10433.01  48.61
569.7  21776.78  10492.77  48.18
571.1  22080.65  10531.25  47.69
572.6  22373.82  10566.72  47.23
574.0  22675.95  10598.23  46.74
575.4  22958.44  10623.94  46.27
576.9  23231.09  10647.66  45.83
578.3  23477.03  10657.37  45.39
579.7  23721.74  10676.45  45.01
581.1  23920.49  10669.65  44.60
582.6  24132.47  10679.81  44.25
584.0  24305.80  10675.97  43.92
585.4  24549.94  10701.29  43.59
586.8  24845.17  10754.98  43.29
588.3  25201.80  10832.25  42.98
589.7  25517.70  10889.97  42.68
591.1  25735.55  10916.40  42.42
592.5  25883.00  10907.89  42.14
594.0  25998.42  10877.63  41.84
595.4  26057.54  10836.78  41.59
596.8  26115.38  10803.65  41.37
598.2  26174.55  10757.13  41.10
599.6  26202.06  10705.70  40.86
601.0  26298.70  10677.83  40.60
602.4  26372.18  10638.01  40.34
603.9  26501.77  10608.89  40.03
605.3  26625.41  10582.49  39.75
606.7  26749.80  10535.70  39.39
608.1  26941.18  10516.75  39.04
609.5  27151.69  10505.33  38.69
610.9  27387.74  10501.04  38.34
612.3  27589.20  10479.58  37.98
613.7  27871.80  10489.17  37.63
615.1  28061.64  10452.24  37.25
616.5  28235.16  10418.06  36.90
617.9  28534.12  10451.77  36.63
619.3  28808.15  10485.47  36.40
620.7  29149.14  10565.06  36.24
622.1  29527.66  10652.75  36.08
623.5  29951.83  10777.07  35.98
624.9  30436.35  10937.11  35.93
626.3  30757.12  11050.03  35.93
627.7  30461.43  10926.71  35.87
629.1  30188.34  10796.28  35.76
630.5  30083.03  10675.03  35.49
631.9  30076.12  10561.12  35.11
633.3  30078.24  10430.72  34.68
634.7  30183.54  10351.49  34.30
636.1  30268.81  10257.85  33.89
637.5  30374.19  10187.84  33.54
638.9  30520.15  10148.04  33.25
640.2  30643.60  10112.24  33.00
641.6  30733.56  10035.87  32.65
643.0  30777.50  9925.75  32.25
644.4  30869.16  9799.94  31.75
645.8  30855.38  9631.06  31.21
647.2  31023.20  9510.32  30.66
648.5  31185.15  9373.72  30.06
649.9  31117.13  9181.77  29.51
651.3  31099.80  8994.70  28.92
652.7  31059.00  8792.40  28.31
654.1  30961.56  8502.17  27.46
655.5  30829.51  8203.17  26.61
656.8  30685.81  7918.66  25.81
658.2  30861.69  7734.47  25.06
659.6  31181.89  7597.60  24.37
660.9  31452.29  7434.29  23.64
662.3  31767.46  7262.49  22.86
663.7  32102.70  7086.45  22.07
665.0  32334.98  6912.86  21.38
666.4  32575.38  6763.57  20.76
667.8  32873.84  6653.06  20.24
669.1  33084.01  6553.89  19.81
670.5  33327.47  6500.94  19.51
671.9  33513.12  6454.56  19.26
673.2  33742.50  6449.93  19.12
674.6  33950.66  6475.65  19.07
676.0  34219.05  6545.64  19.13
677.3  34494.18  6641.50  19.25
678.7  34767.13  6787.25  19.52
680.0  35103.31  7005.94  19.96
681.4  35420.13  7320.34  20.67
682.8  35763.00  7734.24  21.63
684.1  36073.44  8263.71  22.91
685.5  36318.59  8918.08  24.56
686.8  36607.26  9707.57  26.52
688.2  36844.31  10613.52  28.81
689.5  36898.97  11604.60  31.45
690.9  36950.15  12691.74  34.35
692.2  37008.15  13847.35  37.42
693.6  37024.93  15074.76  40.72
694.9  37005.38  16300.63  44.05
696.2  37027.13  17561.37  47.43
697.6  37047.86  18806.08  50.76
698.9  37049.76  20024.40  54.05
700.3  37075.62  21208.70  57.20
701.6  37124.24  22342.92  60.18
703.0  37178.40  23414.34  62.98
704.3  37172.20  24379.06  65.58
705.6  37157.22  25285.31  68.05
707.0  37168.46  26138.89  70.33
708.3  37076.04  26878.14  72.49
709.6  36967.81  27558.59  74.55
711.0  36867.73  28155.83  76.37
712.3  36770.31  28696.86  78.04
713.6  36755.88  29260.84  79.61
714.9  36684.64  29751.89  81.10
716.3  36701.44  30261.88  82.45
717.6  36734.04  30753.17  83.72
718.9  36680.73  31126.02  84.86
720.2  36496.25  31387.78  86.00
721.6  36394.28  31655.13  86.98
722.9  36240.12  31877.06  87.96
724.2  36067.30  32026.13  88.80
725.5  35963.70  32192.11  89.51
726.8  35833.96  32315.52  90.18
728.1  35810.80  32490.63  90.73
729.5  35779.10  32640.37  91.23
730.8  35779.13  32791.60  91.65
732.1  35704.25  32893.98  92.13
733.4  35690.92  33006.75  92.48
734.7  35685.89  33088.67  92.72
736.0  35729.66  33233.44  93.01
737.3  35717.44  33318.97  93.28
738.6  35830.21  33528.29  93.58
739.9  36014.88  33820.94  93.91
741.2  36161.58  34069.49  94.21
742.5  36363.94  34424.54  94.67
743.8  36737.66  34945.49  95.12
745.1  37309.08  35676.77  95.62
746.4  37926.98  36489.49  96.21
747.7  38536.99  37287.07  96.76
749.0  39118.92  38027.74  97.21
750.3  39493.02  38423.68  97.29
751.6  39440.80  38363.95  97.27
752.9  39084.79  38009.72  97.25
754.2  38731.25  37641.91  97.19
755.4  38386.91  37266.93  97.08
756.7  38244.09  37215.70  97.31
758.0  38261.36  37351.68  97.62
759.3  38489.95  37698.70  97.94
760.6  38786.44  38118.08  98.28
761.9  39062.28  38507.88  98.58
763.1  39197.21  38741.47  98.84
764.4  39371.54  39012.32  99.09
765.7  39490.75  39229.67  99.34
767.0  39577.16  39420.29  99.60
768.2  39644.64  39586.40  99.85
769.5  39697.68  39718.75  100.05
770.8  39836.32  39943.70  100.27
772.0  39856.44  40025.42  100.42
773.3  39898.95  40147.27  100.62
774.6  39978.84  40292.83  100.79
775.8  40054.79  40409.85  100.89
777.1  40085.96  40487.12  101.00
778.4  40059.57  40489.50  101.07
779.6  39999.54  40517.65  101.30
780.9  39948.00  40500.00  101.38
782.1  39837.20  40407.35  101.43
783.4  39802.88  40453.23  101.63
784.6  39851.08  40546.58  101.75
785.9  40095.40  40915.30  102.04
787.1  40531.58  41545.26  102.50
788.4  40834.19  41975.73  102.80
789.6  40796.10  41830.15  102.53
790.9  40479.11  41366.57  102.19
792.1  40128.24  40944.01  102.03
793.4  39739.41  40576.50  102.11
794.6  39507.48  40316.82  102.05
795.8  39314.07  40118.24  102.05
797.1  39097.95  39882.56  102.01
798.3  38940.83  39757.57  102.10
799.5  38821.14  39692.48  102.24
800.8  38733.05  39608.69  102.26
802.0  38591.76  39512.33  102.39
803.2  38469.72  39397.07  102.41
804.5  38377.94  39318.62  102.45
805.7  38264.87  39219.87  102.50
806.9  38181.95  39120.14  102.46
808.1  38074.65  39056.15  102.58
809.4  38033.33  39028.55  102.62
810.6  37951.55  38969.23  102.68
811.8  37942.61  38985.14  102.75
813.0  37965.80  39039.35  102.83
814.2  37975.49  39106.66  102.98
815.4  38039.93  39228.72  103.13
816.6  38032.65  39280.19  103.28
817.9  38050.16  39316.28  103.33
819.1  37997.24  39245.05  103.28
820.3  37865.18  39106.22  103.28
821.5  37787.61  39002.69  103.22
822.7  37714.41  38936.06  103.24
823.9  37704.87  38930.87  103.25
825.1  37688.07  38928.55  103.29
826.3  37716.38  38921.65  103.20
827.5  37726.06  38941.00  103.22
828.7  37779.60  38943.16  103.08
829.9  37796.29  38959.99  103.08
831.0  37849.02  39015.38  103.08
832.2  37913.75  39065.52  103.04
833.4  37950.44  39112.02  103.06
834.6  37978.13  39179.69  103.16
835.8  38031.53  39241.91  103.18
837.0  38073.26  39354.13  103.36
838.1  38178.69  39509.12  103.48
839.3  38239.24  39593.91  103.54
840.5  38296.24  39719.37  103.72
841.7  38381.58  39880.08  103.90
842.9  38485.06  40040.63  104.04
844.0  38543.94  40170.34  104.22
845.2  38626.85  40333.79  104.42
846.4  38724.98  40472.83  104.51
847.5  38888.12  40700.55  104.66
848.7  39002.30  40895.40  104.85
849.9  39141.74  41063.31  104.91
851.0  39173.78  41110.74  104.94
852.2  39245.07  41175.03  104.92
853.3  39202.67  41143.89  104.95
854.5  39188.19  41158.08  105.03
855.6  39170.88  41147.72  105.05
856.8  39193.80  41214.57  105.16
857.9  39192.81  41211.42  105.15
859.1  39326.60  41337.47  105.11
860.2  39300.24  41372.64  105.27
861.4  39344.78  41412.10  105.25
862.5  39384.29  41450.69  105.25
863.7  39467.66  41539.04  105.25
864.8  39454.45  41566.93  105.35
865.9  39398.65  41511.74  105.36
867.1  39448.45  41535.79  105.29
868.2  39441.53  41544.67  105.33
869.3  39465.67  41571.59  105.34
870.5  39438.89  41509.53  105.25
871.6  39473.54  41499.59  105.13
872.7  39541.37  41556.38  105.10
873.9  39548.50  41583.63  105.15
875.0  39546.05  41546.62  105.06
876.1  39583.15  41543.43  104.95
877.2  39616.79  41547.50  104.87
878.3  39601.98  41533.50  104.88
879.4  39662.11  41568.37  104.81
880.5  39702.60  41583.54  104.74
881.7  39698.10  41526.12  104.60
882.8  39775.46  41538.66  104.43
883.9  39785.32  41541.20  104.41
885.0  39766.55  41441.97  104.21
886.1  39735.85  41352.36  104.07
887.2  39664.66  41155.34  103.76
888.3  39567.00  41011.80  103.65
889.4  39535.02  40874.14  103.39
890.5  39459.91  40773.14  103.33
891.6  39428.33  40677.94  103.17
892.7  39429.01  40621.77  103.03
893.8  39492.50  40626.61  102.87
894.9  39505.51  40604.15  102.78
896.0  39527.49  40526.31  102.53
897.0  39487.40  40526.06  102.63
898.1  39490.45  40471.83  102.49
899.2  39536.22  40490.46  102.41
900.3  39503.73  40347.27  102.14
901.4  39454.09  40235.00  101.98
902.4  39461.49  40226.98  101.94
903.5  39418.10  40120.07  101.78
904.6  39431.18  40066.09  101.61
905.7  39454.64  40054.33  101.52
906.7  39397.52  39985.25  101.49
907.8  39514.80  39992.59  101.21
908.9  39443.33  39880.62  101.11
909.9  39411.21  39793.58  100.97
911.0  39357.50  39689.32  100.84
912.1  39280.99  39579.32  100.76
913.1  39233.48  39452.49  100.56
914.2  39173.92  39266.57  100.24
915.2  39170.79  39184.11  100.03
916.3  39094.50  39117.95  100.06
917.3  39076.47  39031.01  99.88
918.4  39031.30  38866.81  99.58
919.4  39022.48  38740.67  99.28
920.5  39026.74  38630.76  98.99
921.5  39018.63  38578.83  98.87
922.6  38959.72  38406.76  98.58
923.6  39026.05  38321.87  98.20
924.7  39022.50  38201.92  97.90
925.7  39030.84  38093.26  97.60
926.7  39009.32  38009.22  97.44
927.8  39032.57  37872.60  97.03
928.8  39142.62  37838.99  96.67
929.9  39330.10  37785.08  96.07
930.9  39447.46  37809.05  95.85
931.9  39602.61  37797.77  95.44
932.9  39864.58  37916.14  95.11
934.0  39909.81  37824.09  94.77
935.0  39942.68  37694.18  94.37
936.0  39929.50  37511.14  93.94
937.0  39883.94  37318.58  93.57
938.1  39848.52  37133.02  93.19
939.1  39753.89  36927.78  92.89
940.1  39867.76  36820.62  92.36
941.1  39995.43  36850.09  92.14
942.1  40229.45  36888.46  91.70
943.1  40393.76  36842.67  91.21
944.1  40552.56  36862.45  90.90
945.2  40570.32  36714.23  90.50
946.2  40685.67  36585.00  89.92
947.2  40740.25  36420.13  89.40
948.2  40874.09  36357.45  88.95
949.2  40954.06  36193.35  88.38
950.2  41026.00  36056.98  87.89
951.2  41012.16  35876.12  87.48
952.2  41170.94  35718.28  86.76
953.2  41257.13  35630.48  86.36
954.2  41395.95  35529.26  85.83
955.2  41401.94  35333.75  85.34
956.2  41391.82  35161.13  84.95
957.2  41524.97  35029.87  84.36
958.2  41486.28  34963.28  84.28
959.2  41625.00  34934.48  83.93
960.1  41647.94  34856.96  83.69
961.1  41725.78  34841.11  83.50
962.1  41752.50  34755.16  83.24
963.1  41720.60  34791.49  83.39
964.1  41837.60  34799.30  83.18
965.1  41932.95  34889.77  83.20
966.1  41961.44  34872.79  83.11
967.0  42058.17  34910.24  83.00
968.0  42094.69  34874.50  82.85
969.0  42115.20  35006.83  83.12
970.0  42092.26  35036.42  83.24
971.0  42266.18  35066.12  82.96
971.9  42275.33  35095.61  83.02
972.9  42388.85  35135.54  82.89
973.9  42492.13  35204.71  82.85
974.9  42580.28  35286.07  82.87
975.8  42630.52  35336.21  82.89
976.8  42806.43  35397.05  82.69
977.8  42848.34  35483.95  82.81
978.8  42868.95  35644.68  83.15
979.7  43050.58  35771.59  83.09
980.7  43264.32  35980.70  83.16
981.7  43347.07  36108.07  83.30
982.6  43545.07  36359.57  83.50
983.6  44003.55  36910.81  83.88
984.6  44377.46  37293.17  84.04
985.5  44900.28  37898.22  84.41
986.5  45688.01  38666.18  84.63
987.5  46285.78  39381.10  85.08
988.4  47161.40  40065.85  84.95
989.4  47812.76  41009.12  85.77
990.4  48753.98  42282.64  86.73
991.3  50274.64  43258.91  86.05
992.3  50864.45  44278.16  87.05
993.2  51610.85  45851.38  88.84
994.2  53891.66  46469.96  86.23
995.2  55394.96  47188.30  85.19
996.1  55625.12  47729.61  85.81
997.1  56348.70  48151.54  85.45
998.0  54473.40  47906.90  87.95
999.0  55283.87  48117.45  87.04
1000.0  55127.21  47939.42  86.96
1000.9  55875.58  48727.18  87.21
1001.9  56355.47  47908.90  85.01
1002.8  54776.67  48156.08  87.91
1003.8  57170.04  47714.43  83.46
1004.8  54763.20  48222.04  88.06
961.5  49984.08  36642.10  73.31
965.5  48959.90  36307.67  74.16
969.5  47367.08  35401.79  74.74
973.4  45664.01  34349.43  75.22
977.4  44063.24  33608.55  76.27
981.4  43484.76  33536.64  77.12
985.3  43466.28  33807.11  77.78
989.3  43739.41  34284.37  78.38
993.3  44088.36  34790.71  78.91
997.2  44246.85  35148.04  79.44
1001.2  44240.69  35442.16  80.11
1005.2  44147.66  35746.44  80.97
1009.1  44170.72  36181.88  81.91
1013.1  44298.35  36716.99  82.89
1017.1  44409.64  37250.84  83.88
1021.0  44418.65  37705.21  84.89
1025.0  44431.92  38120.90  85.80
1029.0  44310.95  38404.99  86.67
1032.9  44196.36  38686.92  87.53
1036.9  44214.81  39074.04  88.37
1040.9  44317.48  39562.55  89.27
1044.8  44471.57  40100.15  90.17
1048.8  44586.22  40573.12  91.00
1052.7  44660.98  40969.78  91.74
1056.7  44664.90  41260.14  92.38
1060.7  44652.74  41471.62  92.88
1064.6  44643.90  41627.27  93.24
1068.6  44545.19  41644.69  93.49
1072.5  44448.63  41608.08  93.61
1076.5  44390.31  41548.56  93.60
1080.4  44363.13  41471.92  93.48
1084.4  44428.99  41443.47  93.28
1088.3  44526.89  41368.84  92.91
1092.3  44515.11  41149.40  92.44
1096.2  44485.25  40884.60  91.91
1100.2  44489.30  40651.54  91.37
1104.1  44387.15  40294.51  90.78
1108.1  44344.78  39957.86  90.11
1112.0  44255.25  39577.41  89.43
1116.0  44078.91  39073.75  88.65
1119.9  43920.46  38508.30  87.68
1123.9  43980.05  38008.88  86.42
1127.8  43933.44  37208.32  84.69
1131.8  43891.20  36163.25  82.39
1135.7  43904.71  34956.45  79.62
1139.6  43873.24  33622.38  76.64
1143.6  43814.30  32313.11  73.75
1147.5  43764.96  31168.79  71.22
1151.4  43600.54  30193.94  69.25
1155.4  43567.43  29584.59  67.91
1159.3  43548.37  29204.35  67.06
1163.2  43379.84  28851.76  66.51
1167.2  43333.14  28672.82  66.17
1171.1  43320.14  28571.56  65.95
1175.0  43247.45  28438.51  65.76
1179.0  43203.54  28316.42  65.54
1182.9  43281.26  28265.71  65.31
1186.8  43262.79  28166.93  65.11
1190.7  43059.97  27958.23  64.93
1194.7  42822.73  27745.30  64.79
1198.6  42602.18  27590.64  64.76
1202.5  42456.57  27511.11  64.80
1206.4  42335.53  27471.91  64.89
1210.3  42230.32  27473.42  65.06
1214.2  42126.94  27504.21  65.29
1218.2  41984.08  27539.95  65.60
1222.1  41854.50  27599.52  65.94
1226.0  41760.57  27678.00  66.28
1229.9  41673.90  27758.22  66.61
1233.8  41576.55  27825.20  66.93
1237.7  41528.30  27913.90  67.22
1241.6  41457.25  27980.67  67.49
1245.5  41309.15  27983.52  67.74
1249.4  41175.26  27989.28  67.98
1253.3  41058.30  27991.73  68.18
1257.2  40978.33  27999.70  68.33
1261.1  40873.57  27968.33  68.43
1265.0  40757.89  27893.28  68.44
1268.9  40587.74  27768.09  68.41
1272.8  40626.75  27776.10  68.37
1276.7  40780.33  27827.24  68.24
1280.6  40842.56  27777.39  68.01
1284.5  40748.73  27588.59  67.70
1288.4  40697.88  27387.86  67.30
1292.3  40562.50  27093.00  66.79
1296.2  40411.46  26754.61  66.21
1300.1  40239.63  26364.02  65.52
1303.9  40009.73  25886.42  64.70
1307.8  39785.54  25374.84  63.78
1311.7  39554.21  24813.14  62.73
1315.6  39326.35  24223.09  61.60
1319.5  39086.11  23604.88  60.39
1323.3  38870.69  22977.48  59.11
1327.2  38681.53  22355.43  57.79
