/*** Spectra Vista SIG Data ***/
name= BDT.sig
comm= Averaged Ref/Tar of files: BDT1,BDT2,BDT3
data=
346.4  509.60  334.43  65.63
347.9  549.06  352.45  64.19
349.5  608.40  377.52  62.05
351.1  655.20  413.92  63.17
352.6  708.40  439.59  62.05
354.2  752.68  473.42  62.90
355.7  818.30  515.23  62.96
357.3  873.81  551.33  63.10
358.8  891.23  566.19  63.53
360.4  967.31  601.49  62.18
361.9  1009.93  623.37  61.72
363.5  1059.53  659.03  62.20
365.1  1102.67  676.17  61.32
366.6  1156.59  715.82  61.89
368.2  1218.77  758.80  62.26
369.7  1306.00  791.22  60.58
371.3  1379.56  840.69  60.94
372.8  1457.48  888.65  60.97
374.4  1528.58  931.16  60.92
375.9  1575.56  966.52  61.34
377.4  1632.76  996.35  61.02
379.0  1683.54  1034.31  61.44
380.5  1741.87  1058.66  60.78
382.1  1805.51  1093.35  60.56
383.6  1862.60  1130.22  60.68
385.2  1949.75  1177.92  60.41
386.7  2036.04  1237.33  60.77
388.3  2135.96  1289.91  60.39
389.8  2212.47  1350.54  61.04
391.3  2314.34  1406.43  60.77
392.9  2392.65  1451.90  60.68
394.4  2474.90  1505.51  60.83
395.9  2552.82  1556.39  60.97
397.5  2664.75  1640.84  61.58
399.0  2774.82  1708.77  61.58
400.6  2852.64  1745.17  61.18
402.1  2910.24  1766.44  60.70
403.6  2965.71  1798.13  60.63
405.1  3036.77  1837.90  60.52
406.7  3133.76  1906.24  60.83
408.2  3234.33  1965.40  60.77
409.7  3330.88  2018.99  60.61
411.3  3437.91  2080.04  60.50
412.8  3528.93  2136.95  60.56
414.3  3634.54  2201.94  60.58
415.8  3740.00  2265.83  60.58
417.4  3868.37  2325.07  60.10
418.9  3954.39  2384.10  60.29
420.4  4037.85  2430.19  60.19
421.9  4106.74  2472.43  60.20
423.5  4196.00  2507.01  59.75
425.0  4263.51  2549.41  59.80
426.5  4364.50  2607.95  59.75
428.0  4488.82  2671.67  59.52
429.5  4615.58  2751.18  59.61
431.1  4756.23  2841.23  59.74
432.6  4917.76  2947.83  59.94
434.1  5064.68  3044.07  60.10
435.6  5199.35  3132.77  60.25
437.1  5333.25  3218.15  60.34
438.6  5454.84  3301.20  60.52
440.1  5584.70  3386.11  60.63
441.6  5717.14  3467.66  60.65
443.1  5852.25  3553.20  60.72
444.7  5982.11  3638.04  60.82
446.2  6104.50  3713.92  60.84
447.7  6213.60  3782.10  60.87
449.2  6315.84  3863.52  61.17
450.7  6414.72  3924.96  61.19
452.2  6543.45  3995.50  61.06
453.7  6682.65  4082.60  61.09
455.2  6842.54  4185.94  61.18
456.7  7029.44  4318.45  61.43
458.2  7231.16  4458.46  61.66
459.7  7428.75  4614.17  62.11
461.2  7633.63  4761.38  62.37
462.7  7815.14  4898.63  62.68
464.2  8000.76  5044.09  63.05
465.7  8191.53  5186.91  63.32
467.2  8352.58  5317.49  63.66
468.7  8552.00  5454.00  63.77
470.2  8711.17  5577.13  64.02
471.7  8854.00  5744.34  64.88
473.2  9050.37  5963.17  65.89
474.6  9252.88  6125.64  66.20
476.1  9378.88  6188.99  65.99
477.6  9464.51  6256.82  66.11
479.1  9567.20  6345.14  66.32
480.6  9658.16  6443.00  66.71
482.1  9797.74  6576.48  67.12
483.6  9963.22  6737.18  67.62
485.1  10140.49  6916.33  68.21
486.6  10356.19  7131.48  68.86
488.0  10562.50  7356.38  69.65
489.5  10784.97  7597.50  70.45
491.0  10998.86  7845.89  71.33
492.5  11224.98  8101.62  72.17
494.0  11462.99  8369.02  73.01
495.4  11663.85  8616.85  73.88
496.9  11870.36  8873.82  74.76
498.4  12074.30  9131.60  75.63
499.9  12278.41  9393.01  76.50
501.4  12476.75  9651.02  77.35
502.8  12664.51  9903.55  78.20
504.3  12846.60  10141.20  78.94
505.8  13033.73  10385.68  79.68
507.2  13172.68  10580.63  80.32
508.7  13289.99  10751.11  80.90
510.2  13412.81  10908.46  81.33
511.6  13494.72  11046.73  81.86
513.1  13630.43  11215.64  82.28
514.6  13795.53  11386.79  82.54
516.0  13946.28  11545.26  82.78
517.5  14135.83  11755.35  83.16
519.0  14365.19  11985.57  83.43
520.5  14579.60  12205.97  83.72
521.9  14828.55  12468.39  84.08
523.4  15093.49  12749.37  84.47
524.8  15349.14  13030.29  84.89
526.3  15633.70  13332.36  85.28
527.8  15915.89  13632.54  85.65
529.2  16178.21  13902.44  85.93
530.7  16455.24  14197.67  86.28
532.1  16698.15  14461.53  86.61
533.6  16994.07  14757.80  86.84
535.0  17295.55  15052.54  87.03
536.5  17581.25  15343.38  87.27
538.0  17895.84  15643.07  87.41
539.4  18160.64  15923.56  87.68
540.9  18488.86  16264.31  87.97
542.3  18738.28  16559.48  88.37
543.8  18940.29  16765.43  88.52
545.2  19020.35  16839.56  88.53
546.6  19057.19  16866.27  88.50
548.1  19121.11  16903.56  88.40
549.5  19166.91  16933.64  88.35
551.0  19217.70  16951.43  88.21
552.4  19311.21  17001.49  88.04
553.9  19371.38  17028.27  87.90
555.3  19461.20  17073.81  87.73
556.8  19596.88  17174.47  87.64
558.2  19743.75  17273.25  87.49
559.6  19902.71  17394.77  87.40
561.1  20117.50  17566.79  87.32
562.5  20332.52  17754.63  87.32
564.0  20611.34  18000.85  87.33
565.4  20865.50  18227.37  87.36
566.8  21177.73  18512.92  87.42
568.3  21463.05  18779.84  87.50
569.7  21776.78  19067.02  87.56
571.1  22080.65  19348.39  87.63
572.6  22373.82  19623.06  87.71
574.0  22675.95  19896.25  87.74
575.4  22958.44  20153.82  87.78
576.9  23231.09  20397.88  87.80
578.3  23477.03  20620.01  87.83
579.7  23721.74  20829.18  87.81
581.1  23920.49  20994.68  87.77
582.6  24132.47  21175.58  87.75
584.0  24305.80  21333.56  87.77
585.4  24549.94  21549.67  87.78
586.8  24845.17  21841.57  87.91
588.3  25201.80  22159.80  87.93
589.7  25517.70  22430.46  87.90
591.1  25735.55  22602.73  87.83
592.5  25883.00  22683.83  87.64
594.0  25998.42  22733.54  87.44
595.4  26057.54  22727.95  87.22
596.8  26115.38  22727.71  87.03
598.2  26174.55  22719.78  86.80
599.6  26202.06  22705.14  86.65
601.0  26298.70  22743.15  86.48
602.4  26372.18  22788.21  86.41
603.9  26501.77  22873.22  86.31
605.3  26625.41  22976.04  86.29
606.7  26749.80  23064.60  86.22
608.1  26941.18  23242.24  86.27
609.5  27151.69  23437.84  86.32
610.9  27387.74  23677.26  86.45
612.3  27589.20  23894.59  86.61
613.7  27871.80  24198.20  86.82
615.1  28061.64  24404.22  86.97
616.5  28235.16  24616.96  87.19
617.9  28534.12  24942.92  87.41
619.3  28808.15  25249.33  87.65
620.7  29149.14  25621.44  87.90
622.1  29527.66  26013.69  88.10
623.5  29951.83  26469.16  88.37
624.9  30436.35  26994.71  88.69
626.3  30757.12  27352.51  88.93
627.7  30461.43  27117.00  89.02
629.1  30188.34  26882.63  89.05
630.5  30083.03  26791.74  89.06
631.9  30076.12  26816.08  89.16
633.3  30078.24  26819.34  89.17
634.7  30183.54  26939.08  89.25
636.1  30268.81  27000.77  89.20
637.5  30374.19  27078.98  89.15
638.9  30520.15  27189.30  89.09
640.2  30643.60  27286.19  89.04
641.6  30733.56  27316.38  88.88
643.0  30777.50  27276.76  88.63
644.4  30869.16  27261.49  88.31
645.8  30855.38  27173.18  88.07
647.2  31023.20  27263.86  87.88
648.5  31185.15  27321.76  87.61
649.9  31117.13  27174.36  87.33
651.3  31099.80  27063.15  87.02
652.7  31059.00  26864.25  86.49
654.1  30961.56  26671.32  86.14
655.5  30829.51  26508.76  85.99
656.8  30685.81  26352.00  85.88
658.2  30861.69  26512.84  85.91
659.6  31181.89  26828.93  86.04
660.9  31452.29  27075.68  86.08
662.3  31767.46  27317.99  85.99
663.7  32102.70  27552.70  85.83
665.0  32334.98  27761.12  85.85
666.4  32575.38  27957.35  85.82
667.8  32873.84  28214.47  85.83
669.1  33084.01  28432.32  85.94
670.5  33327.47  28681.47  86.06
671.9  33513.12  28838.12  86.05
673.2  33742.50  29052.64  86.10
674.6  33950.66  29249.50  86.15
676.0  34219.05  29484.77  86.16
677.3  34494.18  29727.35  86.18
678.7  34767.13  29983.75  86.24
680.0  35103.31  30336.70  86.42
681.4  35420.13  30711.64  86.71
682.8  35763.00  31068.16  86.87
684.1  36073.44  31434.00  87.14
685.5  36318.59  31758.65  87.44
686.8  36607.26  32077.58  87.63
688.2  36844.31  32359.83  87.83
689.5  36898.97  32469.95  88.00
690.9  36950.15  32537.22  88.06
692.2  37008.15  32600.05  88.09
693.6  37024.93  32667.80  88.23
694.9  37005.38  32626.94  88.17
696.2  37027.13  32662.88  88.21
697.6  37047.86  32687.60  88.23
698.9  37049.76  32723.68  88.32
700.3  37075.62  32765.35  88.37
701.6  37124.24  32823.67  88.42
703.0  37178.40  32886.55  88.46
704.3  37172.20  32901.38  88.51
705.6  37157.22  32881.08  88.49
707.0  37168.46  32893.38  88.50
708.3  37076.04  32802.85  88.47
709.6  36967.81  32707.66  88.48
711.0  36867.73  32578.01  88.36
712.3  36770.31  32413.21  88.15
713.6  36755.88  32337.06  87.98
714.9  36684.64  32221.14  87.83
716.3  36701.44  32169.40  87.65
717.6  36734.04  32130.75  87.47
718.9  36680.73  32010.65  87.27
720.2  36496.25  31806.67  87.15
721.6  36394.28  31634.20  86.92
722.9  36240.12  31419.53  86.70
724.2  36067.30  31147.75  86.36
725.5  35963.70  30923.42  85.99
726.8  35833.96  30700.52  85.67
728.1  35810.80  30541.24  85.28
729.5  35779.10  30372.60  84.89
730.8  35779.13  30213.79  84.45
732.1  35704.25  30039.45  84.13
733.4  35690.92  29890.38  83.75
734.7  35685.89  29752.05  83.37
736.0  35729.66  29676.56  83.06
737.3  35717.44  29563.51  82.77
738.6  35830.21  29584.58  82.57
739.9  36014.88  29681.22  82.41
741.2  36161.58  29762.46  82.30
742.5  36363.94  29941.19  82.34
743.8  36737.66  30273.51  82.40
745.1  37309.08  30791.92  82.53
746.4  37926.98  31405.16  82.80
747.7  38536.99  32048.79  83.16
749.0  39118.92  32670.49  83.52
750.3  39493.02  33025.15  83.62
751.6  39440.80  32954.07  83.55
752.9  39084.79  32598.28  83.40
754.2  38731.25  32207.14  83.16
755.4  38386.91  31796.05  82.83
756.7  38244.09  31643.88  82.74
758.0  38261.36  31651.33  82.72
759.3  38489.95  31854.49  82.76
760.6  38786.44  32132.61  82.84
761.9  39062.28  32380.44  82.89
763.1  39197.21  32533.83  83.00
764.4  39371.54  32723.14  83.11
765.7  39490.75  32861.83  83.21
767.0  39577.16  32975.46  83.32
768.2  39644.64  33070.24  83.42
769.5  39697.68  33147.48  83.50
770.8  39836.32  33306.63  83.61
772.0  39856.44  33340.73  83.65
773.3  39898.95  33418.68  83.76
774.6  39978.84  33502.99  83.80
775.8  40054.79  33602.62  83.89
777.1  40085.96  33640.72  83.92
778.4  40059.57  33604.71  83.89
779.6  39999.54  33601.50  84.00
780.9  39948.00  33550.67  83.99
782.1  39837.20  33433.87  83.93
783.4  39802.88  33440.85  84.02
784.6  39851.08  33463.89  83.97
785.9  40095.40  33711.65  84.08
787.1  40531.58  34198.42  84.37
788.4  40834.19  34630.47  84.81
789.6  40796.10  34633.54  84.89
790.9  40479.11  34327.27  84.80
792.1  40128.24  33953.41  84.61
793.4  39739.41  33625.78  84.62
794.6  39507.48  33393.90  84.53
795.8  39314.07  33209.78  84.47
797.1  39097.95  33005.58  84.42
798.3  38940.83  32865.12  84.40
799.5  38821.14  32792.65  84.47
800.8  38733.05  32706.70  84.44
802.0  38591.76  32625.36  84.54
803.2  38469.72  32510.85  84.51
804.5  38377.94  32441.40  84.53
805.7  38264.87  32353.97  84.55
806.9  38181.95  32249.68  84.46
808.1  38074.65  32179.61  84.52
809.4  38033.33  32151.21  84.53
810.6  37951.55  32063.85  84.49
811.8  37942.61  32034.93  84.43
813.0  37965.80  32034.41  84.38
814.2  37975.49  32046.57  84.39
815.4  38039.93  32139.86  84.49
816.6  38032.65  32142.36  84.51
817.9  38050.16  32175.85  84.56
819.1  37997.24  32100.55  84.48
820.3  37865.18  31952.61  84.39
821.5  37787.61  31840.16  84.26
822.7  37714.41  31746.00  84.17
823.9  37704.87  31686.98  84.04
825.1  37688.07  31620.81  83.90
826.3  37716.38  31550.69  83.65
827.5  37726.06  31494.47  83.48
828.7  37779.60  31432.08  83.20
829.9  37796.29  31361.25  82.97
831.0  37849.02  31324.12  82.76
832.2  37913.75  31305.11  82.57
833.4  37950.44  31278.76  82.42
834.6  37978.13  31264.06  82.32
835.8  38031.53  31279.50  82.25
837.0  38073.26  31311.35  82.24
838.1  38178.69  31373.17  82.17
839.3  38239.24  31388.77  82.09
840.5  38296.24  31450.11  82.12
841.7  38381.58  31515.12  82.11
842.9  38485.06  31583.08  82.07
844.0  38543.94  31643.11  82.10
845.2  38626.85  31736.02  82.16
846.4  38724.98  31799.83  82.12
847.5  38888.12  31936.94  82.13
848.7  39002.30  32059.07  82.20
849.9  39141.74  32169.46  82.19
851.0  39173.78  32212.01  82.23
852.2  39245.07  32232.04  82.13
853.3  39202.67  32218.25  82.18
854.5  39188.19  32186.80  82.13
855.6  39170.88  32162.01  82.11
856.8  39193.80  32164.16  82.06
857.9  39192.81  32134.30  81.99
859.1  39326.60  32194.53  81.86
860.2  39300.24  32180.81  81.88
861.4  39344.78  32187.71  81.81
862.5  39384.29  32177.72  81.70
863.7  39467.66  32211.27  81.61
864.8  39454.45  32179.35  81.56
865.9  39398.65  32124.85  81.54
867.1  39448.45  32101.08  81.37
868.2  39441.53  32076.52  81.33
869.3  39465.67  32055.57  81.22
870.5  39438.89  31959.75  81.04
871.6  39473.54  31933.00  80.90
872.7  39541.37  31925.84  80.74
873.9  39548.50  31913.97  80.70
875.0  39546.05  31834.62  80.50
876.1  39583.15  31793.35  80.32
877.2  39616.79  31755.57  80.16
878.3  39601.98  31687.43  80.01
879.4  39662.11  31677.19  79.87
880.5  39702.60  31665.48  79.76
881.7  39698.10  31586.10  79.57
882.8  39775.46  31582.59  79.40
883.9  39785.32  31564.95  79.34
885.0  39766.55  31441.18  79.06
886.1  39735.85  31372.92  78.95
887.2  39664.66  31220.47  78.71
888.3  39567.00  31081.08  78.55
889.4  39535.02  30963.40  78.32
890.5  39459.91  30851.13  78.18
891.6  39428.33  30718.61  77.91
892.7  39429.01  30665.00  77.77
893.8  39492.50  30604.34  77.49
894.9  39505.51  30548.98  77.33
896.0  39527.49  30454.00  77.05
897.0  39487.40  30408.78  77.01
898.1  39490.45  30329.88  76.80
899.2  39536.22  30295.85  76.63
900.3  39503.73  30160.68  76.35
901.4  39454.09  30058.02  76.18
902.4  39461.49  29978.86  75.97
903.5  39418.10  29859.89  75.75
904.6  39431.18  29813.66  75.61
905.7  39454.64  29747.70  75.40
906.7  39397.52  29662.95  75.29
907.8  39514.80  29603.82  74.92
908.9  39443.33  29486.13  74.76
909.9  39411.21  29388.38  74.57
911.0  39357.50  29259.04  74.34
912.1  39280.99  29108.33  74.10
913.1  39233.48  28984.63  73.88
914.2  39173.92  28796.37  73.51
915.2  39170.79  28671.30  73.20
916.3  39094.50  28558.75  73.05
917.3  39076.47  28431.80  72.76
918.4  39031.30  28269.54  72.43
919.4  39022.48  28132.80  72.09
920.5  39026.74  27959.87  71.64
921.5  39018.63  27834.19  71.34
922.6  38959.72  27637.28  70.94
923.6  39026.05  27486.03  70.43
924.7  39022.50  27315.75  70.00
925.7  39030.84  27113.80  69.47
926.7  39009.32  26960.60  69.11
927.8  39032.57  26793.79  68.64
928.8  39142.62  26665.77  68.12
929.9  39330.10  26532.84  67.46
930.9  39447.46  26431.52  67.00
931.9  39602.61  26305.64  66.42
932.9  39864.58  26235.16  65.81
934.0  39909.81  26063.63  65.31
935.0  39942.68  25835.09  64.68
936.0  39929.50  25600.99  64.12
937.0  39883.94  25332.39  63.52
938.1  39848.52  25076.54  62.93
939.1  39753.89  24812.14  62.41
940.1  39867.76  24660.39  61.86
941.1  39995.43  24506.58  61.27
942.1  40229.45  24370.13  60.58
943.1  40393.76  24219.35  59.96
944.1  40552.56  24077.81  59.37
945.2  40570.32  23830.94  58.74
946.2  40685.67  23614.58  58.04
947.2  40740.25  23357.21  57.33
948.2  40874.09  23147.48  56.63
949.2  40954.06  22891.92  55.90
950.2  41026.00  22620.50  55.14
951.2  41012.16  22362.48  54.53
952.2  41170.94  22101.17  53.68
953.2  41257.13  21855.92  52.97
954.2  41395.95  21607.50  52.20
955.2  41401.94  21415.33  51.73
956.2  41391.82  21165.56  51.13
957.2  41524.97  20967.37  50.49
958.2  41486.28  20862.73  50.29
959.2  41625.00  20718.15  49.77
960.1  41647.94  20611.22  49.49
961.1  41725.78  20535.05  49.21
962.1  41752.50  20466.56  49.02
963.1  41720.60  20389.04  48.87
964.1  41837.60  20352.25  48.65
965.1  41932.95  20359.03  48.55
966.1  41961.44  20347.92  48.49
967.0  42058.17  20297.43  48.26
968.0  42094.69  20302.46  48.23
969.0  42115.20  20322.87  48.26
970.0  42092.26  20343.49  48.33
971.0  42266.18  20309.03  48.05
971.9  42275.33  20342.54  48.12
972.9  42388.85  20374.84  48.07
973.9  42492.13  20385.95  47.98
974.9  42580.28  20387.91  47.88
975.8  42630.52  20435.40  47.94
976.8  42806.43  20468.30  47.82
977.8  42848.34  20516.23  47.88
978.8  42868.95  20611.60  48.08
979.7  43050.58  20681.88  48.04
980.7  43264.32  20863.37  48.22
981.7  43347.07  21072.10  48.61
982.6  43545.07  21124.40  48.51
983.6  44003.55  21349.67  48.52
984.6  44377.46  21715.78  48.93
985.5  44900.28  22278.24  49.62
986.5  45688.01  22633.22  49.54
987.5  46285.78  23158.17  50.03
988.4  47161.40  23900.80  50.68
989.4  47812.76  24842.66  51.96
990.4  48753.98  25739.38  52.79
991.3  50274.64  26585.91  52.88
992.3  50864.45  27453.76  53.97
993.2  51610.85  29096.55  56.38
994.2  53891.66  29433.79  54.62
995.2  55394.96  30588.46  55.22
996.1  55625.12  31072.64  55.86
997.1  56348.70  31377.21  55.68
998.0  54473.40  32204.40  59.12
999.0  55283.87  32279.04  58.39
1000.0  55127.21  31876.28  57.82
1000.9  55875.58  32528.51  58.22
1001.9  56355.47  32705.09  58.03
1002.8  54776.67  32615.11  59.54
1003.8  57170.04  33894.71  59.29
1004.8  54763.20  32857.92  60.00
961.5  49984.08  19110.61  38.23
965.5  48959.90  19248.46  39.31
969.5  47367.08  19054.24  40.23
973.4  45664.01  18722.40  41.00
977.4  44063.24  18615.64  42.25
981.4  43484.76  18754.76  43.13
985.3  43466.28  18973.06  43.65
989.3  43739.41  19323.74  44.18
993.3  44088.36  19683.71  44.65
997.2  44246.85  19967.09  45.13
1001.2  44240.69  20277.27  45.83
1005.2  44147.66  20623.37  46.71
1009.1  44170.72  21044.48  47.64
1013.1  44298.35  21536.26  48.62
1017.1  44409.64  22052.59  49.66
1021.0  44418.65  22542.01  50.75
1025.0  44431.92  23033.48  51.84
1029.0  44310.95  23446.95  52.91
1032.9  44196.36  23865.96  54.00
1036.9  44214.81  24341.01  55.05
1040.9  44317.48  24861.61  56.10
1044.8  44471.57  25399.48  57.11
1048.8  44586.22  25882.97  58.05
1052.7  44660.98  26288.56  58.86
1056.7  44664.90  26589.98  59.53
1060.7  44652.74  26821.63  60.07
1064.6  44643.90  26980.15  60.43
1068.6  44545.19  27001.08  60.62
1072.5  44448.63  26944.12  60.62
1076.5  44390.31  26851.50  60.49
1080.4  44363.13  26704.40  60.20
1084.4  44428.99  26532.91  59.72
1088.3  44526.89  26303.57  59.07
1092.3  44515.11  25951.47  58.30
1096.2  44485.25  25551.31  57.44
1100.2  44489.30  25161.23  56.56
1104.1  44387.15  24682.73  55.61
1108.1  44344.78  24226.40  54.63
1112.0  44255.25  23740.31  53.64
1116.0  44078.91  23156.92  52.54
1119.9  43920.46  22496.89  51.22
1123.9  43980.05  21791.67  49.55
1127.8  43933.44  20791.04  47.32
1131.8  43891.20  19513.55  44.46
1135.7  43904.71  18061.06  41.14
1139.6  43873.24  16528.76  37.67
1143.6  43814.30  15100.89  34.47
1147.5  43764.96  13925.10  31.82
1151.4  43600.54  12994.68  29.80
1155.4  43567.43  12378.61  28.41
1159.3  43548.37  11976.98  27.50
1163.2  43379.84  11658.08  26.87
1167.2  43333.14  11455.44  26.44
1171.1  43320.14  11308.02  26.10
1175.0  43247.45  11162.95  25.81
1179.0  43203.54  11028.52  25.53
1182.9  43281.26  10926.51  25.25
1186.8  43262.79  10806.99  24.98
1190.7  43059.97  10654.18  24.74
1194.7  42822.73  10530.67  24.59
1198.6  42602.18  10445.82  24.52
1202.5  42456.57  10385.03  24.46
1206.4  42335.53  10348.38  24.44
1210.3  42230.32  10342.91  24.49
1214.2  42126.94  10350.99  24.57
1218.2  41984.08  10359.31  24.67
1222.1  41854.50  10385.03  24.81
1226.0  41760.57  10427.51  24.97
1229.9  41673.90  10481.28  25.15
1233.8  41576.55  10520.16  25.30
1237.7  41528.30  10565.44  25.44
1241.6  41457.25  10605.44  25.58
1245.5  41309.15  10625.86  25.72
1249.4  41175.26  10643.24  25.85
1253.3  41058.30  10660.69  25.96
1257.2  40978.33  10676.23  26.05
1261.1  40873.57  10666.73  26.10
1265.0  40757.89  10630.06  26.08
1268.9  40587.74  10547.40  25.99
1272.8  40626.75  10504.15  25.86
1276.7  40780.33  10455.26  25.64
1280.6  40842.56  10346.48  25.33
1284.5  40748.73  10171.75  24.96
1288.4  40697.88  9976.25  24.51
1292.3  40562.50  9730.42  23.99
1296.2  40411.46  9451.96  23.39
1300.1  40239.63  9140.90  22.72
1303.9  40009.73  8790.62  21.97
1307.8  39785.54  8419.96  21.16
1311.7  39554.21  8026.05  20.29
1315.6  39326.35  7616.69  19.37
1319.5  39086.11  7198.11  18.42
1323.3  38870.69  6781.15  17.45
1327.2  38681.53  6377.39  16.49
1331.1  38474.56  5985.32  15.56
