/*** Spectra Vista SIG Data ***/
name= RS.sig
comm= Resampled spectral data SIG file reprocesed for matching/overlap;Averaged Ref/Tar of files: RD2S4,RD2S5,RD2S6
data=
346.0  509.60  130.27  25.56
356.0  828.71  148.06  17.87
366.0  1135.02  164.04  14.45
376.0  1579.37  170.96  10.82
386.0  1995.77  164.74  8.25
396.0  2559.82  207.20  8.09
406.0  3091.33  196.02  6.34
416.0  3756.05  228.72  6.09
426.0  4330.84  241.04  5.57
436.0  5235.06  269.61  5.15
446.0  6088.18  320.16  5.26
456.0  6942.22  348.62  5.02
466.0  8223.74  419.95  5.11
476.0  9370.48  477.19  5.09
486.0  10269.91  508.38  4.95
496.0  11746.45  598.88  5.10
506.0  13053.58  689.62  5.28
516.0  13946.28  731.60  5.25
526.0  15576.79  821.78  5.28
536.0  17486.02  949.93  5.43
546.0  19041.40  1077.12  5.66
556.0  19524.52  1137.41  5.83
566.0  20999.31  1327.53  6.32
576.0  23067.50  1707.17  7.40
586.0  24676.47  2251.50  9.12
596.0  26082.33  2953.76  11.32
606.0  26687.61  3755.96  14.07
616.0  28173.19  4869.96  17.29
626.0  30688.38  6045.18  19.70
636.0  30262.72  6921.90  22.87
646.0  30879.36  7363.79  23.85
656.0  30774.24  7028.29  22.84
666.0  32506.69  6126.72  18.85
676.0  34219.05  5906.35  17.26
686.0  36429.62  8885.93  24.39
696.0  37023.78  16562.30  44.73
706.0  37160.43  22273.84  59.94
716.0  36697.84  24729.89  67.39
726.0  35913.80  25424.35  70.79
736.0  35729.66  25533.10  71.46
746.0  37736.85  27533.68  72.96
756.0  38321.00  28117.80  73.37
766.0  39510.69  29616.83  74.96
776.0  40059.59  30400.82  75.89
786.0  40131.74  30727.60  76.57
796.0  39280.82  29774.51  75.80
806.0  38244.14  28973.10  75.76
816.0  38036.29  28918.59  76.03
826.0  37709.30  28495.58  75.57
836.0  38038.49  28622.29  75.25
846.0  38692.27  29517.01  76.29
856.0  39178.52  29940.06  76.42
866.0  39402.80  30153.44  76.53
876.0  39579.78  30092.47  76.03
886.0  39738.64  29693.71  74.72
896.0  39527.49  28891.08  73.09
906.0  39437.50  28380.54  71.96
916.0  39115.31  27529.13  70.38
926.0  39024.38  26465.42  67.82
936.0  39929.50  25729.31  64.44
946.0  40662.60  24768.61  60.91
956.0  41393.84  23350.53  56.41
966.0  41958.59  22881.02  54.53
976.0  42665.70  22970.08  53.84
986.0  43514.08  23034.72  52.94
996.0  44198.08  23730.84  53.69
1006.0  44152.39  24336.41  55.12
1016.0  44379.04  25369.39  57.17
1026.0  44401.68  26240.94  59.10
1036.0  44210.66  26943.37  60.94
1046.0  44505.96  27985.11  62.88
1056.0  44664.21  28811.27  64.51
1066.0  44609.35  29173.20  65.40
1076.0  44397.60  29140.99  65.64
1086.0  44469.15  28977.86  65.16
1096.0  44486.78  28532.12  64.14
1106.0  44367.02  27885.18  62.85
1116.0  44078.91  26993.72  61.24
1126.0  43954.95  25694.82  58.46
1136.0  43902.29  23346.78  53.18
1146.0  43783.94  20604.13  47.06
1156.0  43564.50  18941.89  43.48
1166.0  43347.15  18321.84  42.27
1176.0  43236.47  18047.39  41.74
1186.0  43266.58  17868.84  41.30
1196.0  42749.21  17512.44  40.97
1206.0  42347.95  17391.53  41.07
1216.0  42062.65  17470.76  41.54
1226.0  41760.57  17632.24  42.22
1236.0  41549.33  17807.08  42.86
1246.0  41291.98  17906.59  43.37
1256.0  41002.94  17954.44  43.79
1266.0  40714.26  17905.05  43.98
1276.0  40752.77  17857.74  43.82
1286.0  40729.17  17618.36  43.26
1296.0  40419.20  17078.36  42.25
1306.0  39889.01  16209.41  40.64
1316.0  39301.71  15149.20  38.55
1326.0  38739.73  13943.53  35.99
1336.0  38152.03  12729.05  33.36
1346.0  37634.91  11672.00  31.01
1356.0  36932.28  10704.53  28.98
1366.0  36373.67  9838.83  27.05
1376.0  36238.22  8790.80  24.26
1386.0  35907.93  7165.70  19.96
1396.0  35482.45  5577.16  15.72
1406.0  35048.23  4503.33  12.85
1416.0  34958.68  3957.45  11.32
1426.0  34812.11  3698.45  10.62
1436.0  34651.53  3570.60  10.30
1446.0  34455.26  3516.10  10.20
1456.0  34203.50  3492.26  10.21
1466.0  34017.99  3533.57  10.39
1476.0  33677.47  3641.55  10.81
1486.0  33445.44  3836.64  11.47
1496.0  33136.51  4092.92  12.35
1506.0  32878.23  4206.84  12.80
1516.0  32532.33  4296.88  13.21
1526.0  32200.64  4528.66  14.06
1536.0  31935.91  4756.34  14.89
1546.0  31612.44  4955.09  15.67
1556.0  31368.42  5133.35  16.36
1566.0  31082.67  5293.81  17.03
1576.0  30694.72  5472.91  17.83
1586.0  30400.45  5600.25  18.42
1596.0  30038.76  5688.02  18.94
1606.0  29713.74  5772.99  19.43
1616.0  29361.62  5857.84  19.95
1626.0  29041.80  5935.54  20.44
1636.0  28665.08  5980.15  20.86
1646.0  28273.39  5956.30  21.07
1656.0  27876.35  5892.46  21.14
1666.0  27464.92  5823.23  21.20
1676.0  27087.15  5748.06  21.22
1686.0  27082.21  5696.49  21.03
1696.0  26749.12  5565.30  20.81
1706.0  26324.28  5378.09  20.43
1716.0  25713.57  5118.57  19.91
1726.0  25342.79  4905.44  19.36
1736.0  25046.96  4768.21  19.04
1746.0  24724.28  4606.15  18.63
1756.0  24256.84  4388.59  18.09
1766.0  23870.66  4218.54  17.67
1776.0  23641.10  4119.97  17.43
1786.0  23371.07  4030.70  17.25
1796.0  23059.77  3968.02  17.21
1806.0  22801.89  3930.60  17.24
1816.0  22515.30  3894.91  17.30
1826.0  22114.90  3827.83  17.31
1836.0  21613.42  3717.66  17.20
1846.0  21215.40  3648.39  17.20
1856.0  20774.86  3514.58  16.92
1866.0  20736.29  3078.58  14.85
1876.0  20407.50  2474.11  12.12
1886.0  20155.03  2036.57  10.10
1896.0  19660.33  1826.01  9.29
1906.0  18631.25  1175.32  6.31
1916.0  18318.88  1128.22  6.16
1926.0  18038.46  1098.53  6.09
1936.0  17863.51  1093.95  6.12
1946.0  17797.41  1092.12  6.14
1956.0  17592.99  1098.47  6.24
1966.0  17571.94  1127.74  6.42
1976.0  17404.06  1154.43  6.63
1986.0  17183.68  1155.83  6.73
1996.0  16906.31  1191.68  7.05
2006.0  16756.31  1225.65  7.31
2016.0  16485.40  1242.52  7.54
2026.0  16206.02  1244.16  7.68
2036.0  15962.47  1270.02  7.96
2046.0  15735.40  1285.45  8.17
2056.0  15460.05  1298.15  8.40
2066.0  15198.46  1304.95  8.59
2076.0  14951.14  1324.58  8.86
2086.0  14836.37  1349.37  9.09
2096.0  14558.23  1338.54  9.19
2106.0  14302.47  1353.45  9.46
2116.0  14222.98  1383.31  9.73
2126.0  14069.19  1406.38  10.00
2136.0  13798.40  1394.60  10.11
2146.0  13445.76  1396.88  10.39
2156.0  13239.56  1393.55  10.53
2166.0  12983.56  1378.47  10.62
2176.0  12771.15  1382.99  10.83
2186.0  12627.18  1394.60  11.04
2196.0  12513.18  1379.58  11.03
2206.0  12456.23  1393.49  11.19
2216.0  12351.60  1377.67  11.15
2226.0  12205.08  1342.01  11.00
2236.0  12132.89  1311.56  10.81
2246.0  11882.62  1250.07  10.52
2256.0  11773.90  1197.67  10.17
2266.0  11670.88  1179.43  10.11
2276.0  11528.71  1113.76  9.66
2286.0  11463.55  1067.27  9.31
2296.0  11358.16  1034.80  9.11
2306.0  11039.70  958.44  8.68
2316.0  10655.77  935.67  8.78
2326.0  10608.43  930.97  8.78
2336.0  10592.93  907.76  8.57
2346.0  10498.36  874.63  8.33
2356.0  10259.04  821.84  8.01
2366.0  10158.26  837.58  8.25
2376.0  9929.58  774.58  7.80
2386.0  9815.44  771.15  7.86
2396.0  9663.63  764.86  7.91
2406.0  9510.88  716.07  7.53
2416.0  9304.41  705.90  7.59
2426.0  9217.28  673.61  7.31
2436.0  8983.54  646.82  7.20
2446.0  8817.11  619.64  7.03
2456.0  8689.94  621.58  7.15
2466.0  8452.21  574.70  6.80
2476.0  8254.64  574.72  6.96
2486.0  8114.28  526.87  6.49
2496.0  7981.99  536.48  6.72
2506.0  8320.96  535.59  6.44
