/*** Spectra Vista SIG Data ***/
name= RS.sig
comm= SIG file reprocesed for matching/overlap;Averaged Ref/Tar of files: RD2S4,RD2S5,RD2S6
data=
346.4  509.60  130.27  25.56
347.9  549.06  130.21  23.72
349.5  608.40  131.56  21.62
351.1  655.20  135.93  20.75
352.6  708.40  138.41  19.54
354.2  752.68  142.36  18.91
355.7  818.30  146.38  17.89
357.3  873.81  155.35  17.78
358.8  891.23  156.11  17.52
360.4  967.31  155.82  16.11
361.9  1009.93  157.76  15.62
363.5  1059.53  160.31  15.13
365.1  1102.67  163.78  14.85
366.6  1156.59  164.22  14.20
368.2  1218.77  160.26  13.15
369.7  1306.00  156.28  11.97
371.3  1379.56  163.64  11.86
372.8  1457.48  163.68  11.23
374.4  1528.58  164.43  10.76
375.9  1575.56  171.02  10.85
377.4  1632.76  170.11  10.42
379.0  1683.54  171.75  10.20
380.5  1741.87  171.83  9.86
382.1  1805.51  170.70  9.45
383.6  1862.60  164.90  8.85
385.2  1949.75  164.36  8.43
386.7  2036.04  165.07  8.11
388.3  2135.96  170.21  7.97
389.8  2212.47  177.79  8.04
391.3  2314.34  181.40  7.84
392.9  2392.65  189.76  7.93
394.4  2474.90  197.64  7.99
395.9  2552.82  206.51  8.09
397.5  2664.75  217.60  8.17
399.0  2774.82  207.96  7.49
400.6  2852.64  204.61  7.17
402.1  2910.24  200.21  6.88
403.6  2965.71  193.08  6.51
405.1  3036.77  196.13  6.46
406.7  3133.76  195.93  6.25
408.2  3234.33  200.85  6.21
409.7  3330.88  206.01  6.18
411.3  3437.91  210.07  6.11
412.8  3528.93  217.41  6.16
414.3  3634.54  225.33  6.20
415.8  3740.00  227.75  6.09
417.4  3868.37  235.54  6.09
418.9  3954.39  240.02  6.07
420.4  4037.85  240.86  5.97
421.9  4106.74  238.93  5.82
423.5  4196.00  238.56  5.69
425.0  4263.51  243.11  5.70
426.5  4364.50  240.01  5.50
428.0  4488.82  239.32  5.33
429.5  4615.58  247.27  5.36
431.1  4756.23  250.91  5.28
432.6  4917.76  254.99  5.19
434.1  5064.68  259.68  5.13
435.6  5199.35  267.29  5.14
437.1  5333.25  275.99  5.17
438.6  5454.84  282.04  5.17
440.1  5584.70  292.22  5.23
441.6  5717.14  296.57  5.19
443.1  5852.25  304.83  5.21
444.7  5982.11  310.99  5.20
446.2  6104.50  321.57  5.27
447.7  6213.60  326.50  5.25
449.2  6315.84  330.26  5.23
450.7  6414.72  332.73  5.19
452.2  6543.45  334.77  5.12
453.7  6682.65  337.98  5.06
455.2  6842.54  342.55  5.01
456.7  7029.44  353.94  5.04
458.2  7231.16  362.02  5.01
459.7  7428.75  374.21  5.04
461.2  7633.63  383.12  5.02
462.7  7815.14  396.07  5.07
464.2  8000.76  408.15  5.10
465.7  8191.53  418.12  5.10
467.2  8352.58  427.29  5.12
468.7  8552.00  440.13  5.15
470.2  8711.17  456.91  5.25
471.7  8854.00  470.09  5.31
473.2  9050.37  474.72  5.25
474.6  9252.88  473.97  5.12
476.1  9378.88  477.42  5.09
477.6  9464.51  480.76  5.08
479.1  9567.20  478.77  5.00
480.6  9658.16  482.19  4.99
482.1  9797.74  487.62  4.98
483.6  9963.22  491.55  4.93
485.1  10140.49  501.57  4.95
486.6  10356.19  512.92  4.95
488.0  10562.50  521.95  4.94
489.5  10784.97  534.94  4.96
491.0  10998.86  548.25  4.98
492.5  11224.98  563.22  5.02
494.0  11462.99  579.99  5.06
495.4  11663.85  594.22  5.09
496.9  11870.36  605.88  5.10
498.4  12074.30  623.74  5.17
499.9  12278.41  636.51  5.18
501.4  12476.75  650.25  5.21
502.8  12664.51  664.22  5.24
504.3  12846.60  679.08  5.29
505.8  13033.73  687.75  5.28
507.2  13172.68  700.82  5.32
508.7  13289.99  708.08  5.33
510.2  13412.81  716.67  5.34
511.6  13494.72  718.62  5.33
513.1  13630.43  726.12  5.33
514.6  13795.53  728.43  5.28
516.0  13946.28  731.60  5.25
517.5  14135.83  741.31  5.24
519.0  14365.19  752.75  5.24
520.5  14579.60  763.97  5.24
521.9  14828.55  776.63  5.24
523.4  15093.49  790.91  5.24
524.8  15349.14  804.76  5.24
526.3  15633.70  826.03  5.28
527.8  15915.89  842.89  5.30
529.2  16178.21  859.03  5.31
530.7  16455.24  881.25  5.36
532.1  16698.15  896.81  5.37
533.6  16994.07  916.37  5.39
535.0  17295.55  935.66  5.41
536.5  17581.25  957.07  5.44
538.0  17895.84  978.02  5.47
539.4  18160.64  1005.09  5.53
540.9  18488.86  1026.78  5.55
542.3  18738.28  1047.08  5.59
543.8  18940.29  1064.64  5.62
545.2  19020.35  1073.65  5.64
546.6  19057.19  1079.72  5.67
548.1  19121.11  1086.76  5.68
549.5  19166.91  1095.54  5.72
551.0  19217.70  1101.05  5.73
552.4  19311.21  1109.90  5.75
553.9  19371.38  1118.63  5.77
555.3  19461.20  1130.22  5.81
556.8  19596.88  1145.63  5.85
558.2  19743.75  1164.04  5.90
559.6  19902.71  1183.02  5.94
561.1  20117.50  1209.60  6.01
562.5  20332.52  1240.50  6.10
564.0  20611.34  1276.24  6.19
565.4  20865.50  1307.85  6.27
566.8  21177.73  1353.76  6.39
568.3  21463.05  1401.62  6.53
569.7  21776.78  1450.89  6.66
571.1  22080.65  1503.68  6.81
572.6  22373.82  1558.12  6.96
574.0  22675.95  1617.33  7.13
575.4  22958.44  1681.54  7.32
576.9  23231.09  1745.61  7.51
578.3  23477.03  1815.21  7.73
579.7  23721.74  1884.12  7.94
581.1  23920.49  1957.88  8.18
582.6  24132.47  2037.00  8.44
584.0  24305.80  2116.40  8.71
585.4  24549.94  2205.75  8.98
586.8  24845.17  2312.51  9.31
588.3  25201.80  2420.96  9.61
589.7  25517.70  2531.65  9.92
591.1  25735.55  2631.17  10.22
592.5  25883.00  2730.69  10.55
594.0  25998.42  2818.29  10.84
595.4  26057.54  2912.48  11.18
596.8  26115.38  3008.79  11.52
598.2  26174.55  3108.59  11.88
599.6  26202.06  3209.33  12.25
601.0  26298.70  3321.66  12.63
602.4  26372.18  3439.46  13.04
603.9  26501.77  3564.51  13.45
605.3  26625.41  3691.84  13.87
606.7  26749.80  3820.08  14.28
608.1  26941.18  3965.15  14.72
609.5  27151.69  4112.12  15.14
610.9  27387.74  4274.11  15.61
612.3  27589.20  4434.80  16.07
613.7  27871.80  4607.14  16.53
615.1  28061.64  4764.74  16.98
616.5  28235.16  4928.42  17.45
617.9  28534.12  5124.21  17.96
619.3  28808.15  5323.84  18.48
620.7  29149.14  5552.86  19.05
622.1  29527.66  5710.58  19.34
623.5  29951.83  5817.45  19.42
624.9  30436.35  5952.46  19.56
626.3  30757.12  6070.47  19.74
627.7  30461.43  6111.28  20.06
629.1  30188.34  6171.93  20.44
630.5  30083.03  6281.64  20.88
631.9  30076.12  6436.56  21.40
633.3  30078.24  6603.50  21.95
634.7  30183.54  6796.44  22.52
636.1  30268.81  6931.55  22.90
637.5  30374.19  7045.88  23.20
638.9  30520.15  7157.54  23.45
640.2  30643.60  7246.63  23.65
641.6  30733.56  7307.43  23.78
643.0  30777.50  7332.94  23.83
644.4  30869.16  7357.76  23.84
645.8  30855.38  7358.26  23.85
647.2  31023.20  7396.99  23.84
648.5  31185.15  7446.88  23.88
649.9  31117.13  7459.57  23.97
651.3  31099.80  7508.14  24.14
652.7  31059.00  7535.51  24.26
654.1  30961.56  7355.89  23.76
655.5  30829.51  7114.75  23.08
656.8  30685.81  6889.95  22.45
658.2  30861.69  6760.46  21.91
659.6  31181.89  6673.34  21.40
660.9  31452.29  6579.37  20.92
662.3  31767.46  6462.02  20.34
663.7  32102.70  6339.27  19.75
665.0  32334.98  6210.85  19.21
666.4  32575.38  6093.06  18.70
667.8  32873.84  6008.75  18.28
669.1  33084.01  5919.39  17.89
670.5  33327.47  5865.04  17.60
671.9  33513.12  5816.79  17.36
673.2  33742.50  5820.89  17.25
674.6  33950.66  5844.62  17.22
676.0  34219.05  5906.35  17.26
677.3  34494.18  6015.23  17.44
678.7  34767.13  6170.51  17.75
680.0  35103.31  6418.65  18.29
681.4  35420.13  6769.36  19.11
682.8  35763.00  7228.51  20.21
684.1  36073.44  7826.91  21.70
685.5  36318.59  8553.06  23.55
686.8  36607.26  9418.52  25.73
688.2  36844.31  10386.88  28.19
689.5  36898.97  11406.02  30.91
690.9  36950.15  12474.01  33.76
692.2  37008.15  13565.49  36.66
693.6  37024.93  14670.76  39.62
694.9  37005.38  15714.98  42.47
696.2  37027.13  16716.37  45.15
697.6  37047.86  17662.07  47.67
698.9  37049.76  18567.65  50.12
700.3  37075.62  19421.31  52.38
701.6  37124.24  20212.27  54.44
703.0  37178.40  20933.41  56.31
704.3  37172.20  21551.64  57.98
705.6  37157.22  22123.86  59.54
707.0  37168.46  22648.75  60.94
708.3  37076.04  23062.23  62.20
709.6  36967.81  23435.12  63.39
711.0  36867.73  23731.72  64.37
712.3  36770.31  24005.80  65.29
713.6  36755.88  24290.57  66.09
714.9  36684.64  24532.56  66.87
716.3  36701.44  24783.70  67.53
717.6  36734.04  25048.92  68.19
718.9  36680.73  25209.71  68.73
720.2  36496.25  25264.44  69.22
721.6  36394.28  25337.76  69.62
722.9  36240.12  25393.40  70.07
724.2  36067.30  25397.33  70.42
725.5  35963.70  25429.67  70.71
726.8  35833.96  25415.83  70.93
728.1  35810.80  25436.45  71.03
729.5  35779.10  25453.76  71.14
730.8  35779.13  25478.73  71.21
732.1  35704.25  25473.28  71.35
733.4  35690.92  25490.26  71.42
734.7  35685.89  25488.43  71.42
736.0  35729.66  25533.10  71.46
737.3  35717.44  25558.05  71.56
738.6  35830.21  25669.63  71.64
739.9  36014.88  25863.71  71.81
741.2  36161.58  25999.52  71.90
742.5  36363.94  26247.08  72.18
743.8  36737.66  26612.26  72.44
745.1  37309.08  27145.97  72.76
746.4  37926.98  27706.00  73.05
747.7  38536.99  28251.07  73.31
749.0  39118.92  28764.06  73.53
750.3  39493.02  29002.67  73.44
751.6  39440.80  28919.41  73.32
752.9  39084.79  28672.44  73.36
754.2  38731.25  28405.19  73.34
755.4  38386.91  28135.92  73.30
756.7  38244.09  28096.65  73.47
758.0  38261.36  28185.82  73.67
759.3  38489.95  28435.64  73.88
760.6  38786.44  28761.55  74.15
761.9  39062.28  29063.00  74.40
763.1  39197.21  29223.08  74.55
764.4  39371.54  29434.39  74.76
765.7  39490.75  29589.95  74.93
767.0  39577.16  29706.43  75.06
768.2  39644.64  29829.07  75.24
769.5  39697.68  29916.34  75.36
770.8  39836.32  30061.29  75.46
772.0  39856.44  30124.70  75.58
773.3  39898.95  30220.75  75.74
774.6  39978.84  30331.30  75.87
775.8  40054.79  30392.98  75.88
777.1  40085.96  30443.96  75.95
778.4  40059.57  30399.71  75.89
779.6  39999.54  30422.79  76.06
780.9  39948.00  30405.33  76.11
782.1  39837.20  30328.72  76.13
783.4  39802.88  30353.30  76.26
784.6  39851.08  30406.12  76.30
785.9  40095.40  30691.19  76.55
787.1  40531.58  31128.19  76.80
788.4  40834.19  31348.92  76.77
789.6  40796.10  31167.52  76.40
790.9  40479.11  30805.38  76.10
792.1  40128.24  30497.23  76.00
793.4  39739.41  30206.17  76.01
794.6  39507.48  29966.91  75.85
795.8  39314.07  29798.88  75.80
797.1  39097.95  29640.51  75.81
798.3  38940.83  29526.57  75.82
799.5  38821.14  29454.89  75.87
800.8  38733.05  29374.89  75.84
802.0  38591.76  29289.60  75.90
803.2  38469.72  29165.60  75.81
804.5  38377.94  29095.35  75.81
805.7  38264.87  28997.22  75.78
806.9  38181.95  28900.72  75.69
808.1  38074.65  28851.57  75.78
809.4  38033.33  28817.21  75.77
810.6  37951.55  28771.17  75.81
811.8  37942.61  28784.50  75.86
813.0  37965.80  28807.32  75.88
814.2  37975.49  28855.57  75.98
815.4  38039.93  28915.68  76.01
816.6  38032.65  28921.49  76.04
817.9  38050.16  28918.72  76.00
819.1  37997.24  28839.70  75.90
820.3  37865.18  28716.19  75.84
821.5  37787.61  28625.44  75.75
822.7  37714.41  28574.63  75.77
823.9  37704.87  28545.29  75.71
825.1  37688.07  28511.57  75.65
826.3  37716.38  28490.25  75.54
827.5  37726.06  28488.27  75.51
828.7  37779.60  28460.02  75.33
829.9  37796.29  28441.41  75.25
831.0  37849.02  28463.58  75.20
832.2  37913.75  28498.64  75.17
833.4  37950.44  28522.62  75.16
834.6  37978.13  28564.53  75.21
835.8  38031.53  28609.09  75.22
837.0  38073.26  28688.27  75.35
838.1  38178.69  28798.54  75.43
839.3  38239.24  28861.57  75.48
840.5  38296.24  28946.50  75.59
841.7  38381.58  29083.89  75.78
842.9  38485.06  29220.81  75.93
844.0  38543.94  29330.06  76.10
845.2  38626.85  29455.32  76.26
846.4  38724.98  29547.86  76.30
847.5  38888.12  29717.51  76.42
848.7  39002.30  29831.92  76.49
849.9  39141.74  29932.30  76.47
851.0  39173.78  29945.70  76.44
852.2  39245.07  29959.49  76.34
853.3  39202.67  29942.87  76.38
854.5  39188.19  29917.14  76.34
855.6  39170.88  29922.67  76.39
856.8  39193.80  29974.84  76.48
857.9  39192.81  29970.96  76.47
859.1  39326.60  30053.05  76.42
860.2  39300.24  30053.57  76.47
861.4  39344.78  30100.02  76.50
862.5  39384.29  30125.10  76.49
863.7  39467.66  30175.51  76.46
864.8  39454.45  30182.58  76.50
865.9  39398.65  30152.55  76.53
867.1  39448.45  30163.24  76.46
868.2  39441.53  30157.40  76.46
869.3  39465.67  30160.12  76.42
870.5  39438.89  30096.29  76.31
871.6  39473.54  30107.74  76.27
872.7  39541.37  30145.36  76.24
873.9  39548.50  30153.02  76.24
875.0  39546.05  30108.72  76.14
876.1  39583.15  30090.85  76.02
877.2  39616.79  30089.59  75.95
878.3  39601.98  30029.12  75.83
879.4  39662.11  30029.61  75.71
880.5  39702.60  30029.35  75.64
881.7  39698.10  29969.34  75.49
882.8  39775.46  29937.70  75.27
883.9  39785.32  29871.54  75.08
885.0  39766.55  29782.61  74.89
886.1  39735.85  29684.82  74.71
887.2  39664.66  29505.29  74.39
888.3  39567.00  29358.11  74.20
889.4  39535.02  29236.18  73.95
890.5  39459.91  29137.18  73.84
891.6  39428.33  29045.53  73.67
892.7  39429.01  28992.71  73.53
893.8  39492.50  29008.41  73.45
894.9  39505.51  28978.62  73.35
896.0  39527.49  28891.08  73.09
897.0  39487.40  28862.03  73.09
898.1  39490.45  28847.29  73.05
899.2  39536.22  28786.50  72.81
900.3  39503.73  28709.93  72.68
901.4  39454.09  28613.72  72.52
902.4  39461.49  28573.20  72.41
903.5  39418.10  28480.98  72.25
904.6  39431.18  28439.14  72.12
905.7  39454.64  28406.00  72.00
906.7  39397.52  28321.12  71.89
907.8  39514.80  28315.71  71.66
908.9  39443.33  28192.41  71.48
909.9  39411.21  28122.84  71.36
911.0  39357.50  28023.30  71.20
912.1  39280.99  27901.90  71.03
913.1  39233.48  27781.24  70.81
914.2  39173.92  27658.35  70.60
915.2  39170.79  27584.06  70.42
916.3  39094.50  27508.53  70.36
917.3  39076.47  27408.08  70.14
918.4  39031.30  27249.33  69.81
919.4  39022.48  27140.50  69.55
920.5  39026.74  27055.65  69.33
921.5  39018.63  26961.90  69.10
922.6  38959.72  26813.29  68.82
923.6  39026.05  26742.48  68.52
924.7  39022.50  26644.95  68.28
925.7  39030.84  26503.47  67.90
926.7  39009.32  26376.64  67.62
927.8  39032.57  26268.85  67.30
928.8  39142.62  26197.66  66.93
929.9  39330.10  26139.05  66.46
930.9  39447.46  26101.17  66.17
931.9  39602.61  26096.89  65.90
932.9  39864.58  26127.76  65.54
934.0  39909.81  26008.16  65.17
935.0  39942.68  25905.00  64.86
936.0  39929.50  25729.31  64.44
937.0  39883.94  25566.72  64.10
938.1  39848.52  25408.21  63.76
939.1  39753.89  25247.57  63.51
940.1  39867.76  25147.61  63.08
941.1  39995.43  25128.27  62.83
942.1  40229.45  25117.06  62.43
943.1  40393.76  25042.02  61.99
944.1  40552.56  25000.98  61.65
945.2  40570.32  24878.18  61.32
946.2  40685.67  24741.22  60.81
947.2  40740.25  24593.51  60.37
948.2  40874.09  24495.90  59.93
949.2  40954.06  24362.03  59.49
950.2  41026.00  24157.57  58.88
951.2  41012.16  24052.28  58.65
952.2  41170.94  23881.27  58.01
953.2  41257.13  23771.40  57.62
954.2  41395.95  23639.61  57.11
955.2  41401.94  23501.04  56.76
956.2  41391.82  23312.90  56.32
957.2  41524.97  23211.52  55.90
958.2  41486.28  23133.28  55.76
959.2  41625.00  23058.59  55.40
960.1  41647.94  22968.49  55.15
961.1  41725.78  22940.76  54.98
962.1  41752.50  22911.63  54.87
963.1  41720.60  22891.30  54.87
964.1  41837.60  22873.71  54.67
965.1  41932.95  22921.81  54.66
966.1  41961.44  22876.49  54.52
967.0  42058.17  22903.06  54.46
968.0  42094.69  22905.05  54.41
969.0  42115.20  22919.40  54.42
970.0  42092.26  22925.97  54.47
971.0  42266.18  22949.81  54.30
971.9  42275.33  22976.68  54.35
972.9  42388.85  22967.19  54.18
973.9  42492.13  22943.18  53.99
974.9  42580.28  22981.50  53.97
975.8  42630.52  22963.33  53.87
976.8  42806.43  22997.08  53.72
977.8  42848.34  23048.90  53.79
978.8  42868.95  23084.77  53.85
979.7  43050.58  23176.66  53.84
981.4  43484.76  22899.81  52.66
985.3  43466.28  22989.71  52.89
989.3  43739.41  23246.92  53.15
993.3  44088.36  23561.14  53.44
997.2  44246.85  23806.26  53.80
1001.2  44240.69  24018.54  54.29
1005.2  44147.66  24263.82  54.96
1009.1  44170.72  24617.72  55.73
1013.1  44298.35  25055.53  56.56
1017.1  44409.64  25488.43  57.39
1021.0  44418.65  25842.66  58.18
1025.0  44431.92  26178.91  58.92
1029.0  44310.95  26427.01  59.64
1032.9  44196.36  26674.87  60.36
1036.9  44214.81  27021.33  61.11
1040.9  44317.48  27418.81  61.87
1044.8  44471.57  27861.53  62.65
1048.8  44586.22  28273.47  63.41
1052.7  44660.98  28619.69  64.08
1056.7  44664.90  28851.91  64.60
1060.7  44652.74  29025.14  65.00
1064.6  44643.90  29163.28  65.32
1068.6  44545.19  29191.63  65.53
1072.5  44448.63  29175.66  65.64
1076.5  44390.31  29136.04  65.64
1080.4  44363.13  29067.84  65.52
1084.4  44428.99  29013.98  65.30
1088.3  44526.89  28925.93  64.96
1092.3  44515.11  28740.20  64.56
1096.2  44485.25  28520.88  64.11
1100.2  44489.30  28309.49  63.63
1104.1  44387.15  28013.88  63.11
1108.1  44344.78  27742.94  62.56
1112.0  44255.25  27419.57  61.96
1116.0  44078.91  26993.72  61.24
1119.9  43920.46  26515.68  60.37
1123.9  43980.05  26065.26  59.27
1127.8  43933.44  25377.28  57.76
1131.8  43891.20  24479.25  55.77
1135.7  43904.71  23435.09  53.38
1139.6  43873.24  22287.29  50.80
1143.6  43814.30  21178.67  48.34
1147.5  43764.96  20245.04  46.26
1151.4  43600.54  19472.86  44.66
1155.4  43567.43  18987.64  43.58
1159.3  43548.37  18690.25  42.92
1163.2  43379.84  18423.67  42.47
1167.2  43333.14  18278.20  42.18
1171.1  43320.14  18177.44  41.96
1175.0  43247.45  18069.93  41.78
1179.0  43203.54  17979.78  41.62
1182.9  43281.26  17927.66  41.42
1186.8  43262.79  17853.66  41.27
1190.7  43059.97  17698.57  41.10
1194.7  42822.73  17544.94  40.97
1198.6  42602.18  17447.43  40.95
1202.5  42456.57  17400.10  40.98
1206.4  42335.53  17390.55  41.08
1210.3  42230.32  17415.99  41.24
1214.2  42126.94  17456.34  41.44
1218.2  41984.08  17488.39  41.65
1222.1  41854.50  17549.64  41.93
1226.0  41760.57  17632.24  42.22
1229.9  41673.90  17698.82  42.47
1233.8  41576.55  17764.25  42.73
1237.7  41528.30  17840.17  42.96
1241.6  41457.25  17890.52  43.15
1245.5  41309.15  17904.46  43.34
1249.4  41175.26  17921.09  43.52
1253.3  41058.30  17932.76  43.68
1257.2  40978.33  17964.07  43.84
1261.1  40873.57  17964.51  43.95
1265.0  40757.89  17924.71  43.98
1268.9  40587.74  17848.05  43.97
1272.8  40626.75  17836.25  43.90
1276.7  40780.33  17862.44  43.80
1280.6  40842.56  17825.23  43.64
1284.5  40748.73  17676.87  43.38
1288.4  40697.88  17524.75  43.06
1292.3  40562.50  17314.00  42.68
1296.2  40411.46  17065.63  42.23
1300.1  40239.63  16772.32  41.68
1303.9  40009.73  16414.79  41.03
1307.8  39785.54  16033.37  40.30
1311.7  39554.21  15626.32  39.51
1315.6  39326.35  15196.57  38.64
1319.5  39086.11  14734.70  37.70
1323.3  38870.69  14265.10  36.70
1327.2  38681.53  13800.62  35.68
1331.1  38474.56  13325.83  34.64
1335.0  38203.08  12841.61  33.61
1338.8  38009.09  12413.89  32.66
1342.7  37876.27  12030.15  31.76
1346.5  37598.34  11617.74  30.90
1350.4  37400.07  11253.26  30.09
1354.3  37094.65  10874.53  29.32
1358.1  36731.71  10494.53  28.57
1362.0  36487.36  10161.43  27.85
1365.8  36370.47  9854.03  27.09
1369.7  36432.94  9557.49  26.23
1373.5  36366.82  9146.65  25.15
1377.4  36166.21  8591.52  23.76
1381.2  35990.96  7948.02  22.08
1385.1  35936.27  7312.67  20.35
1389.0  35813.45  6675.83  18.64
1392.8  35598.92  6046.40  16.98
1396.6  35460.61  5489.18  15.48
1400.5  35253.63  5006.55  14.20
1404.3  35072.57  4629.06  13.20
1408.2  35016.72  4340.61  12.40
1412.0  34945.02  4118.48  11.79
1415.8  34962.39  3964.01  11.34
1419.6  34891.95  3839.28  11.00
1423.5  34842.23  3742.88  10.74
1427.3  34796.45  3675.34  10.56
1431.1  34758.75  3627.78  10.44
1434.9  34669.05  3578.22  10.32
1438.8  34606.94  3551.21  10.26
1442.6  34573.84  3537.40  10.23
1446.4  34441.31  3513.59  10.20
1450.2  34332.12  3500.62  10.20
1454.0  34220.52  3489.92  10.20
1457.8  34188.19  3494.36  10.22
1461.6  34155.00  3515.69  10.29
1465.4  34045.70  3530.11  10.37
1469.2  33870.20  3552.04  10.49
1473.0  33726.92  3592.35  10.65
1476.8  33664.28  3654.67  10.86
1480.7  33601.58  3726.17  11.09
1484.4  33488.64  3796.96  11.34
1488.2  33386.04  3891.20  11.66
