/*** Spectra Vista SIG Data ***/
name= GS4.sig
comm= SIG file reprocesed for matching/overlap;Averaged Ref/Tar of files: GD5S10,GD5S11,GD5S12
data=
346.4  366.28  143.96  39.30
347.9  400.03  141.82  35.45
349.5  432.12  149.76  34.66
351.1  468.00  152.67  32.62
352.6  496.51  155.60  31.34
354.2  520.33  163.62  31.45
355.7  575.84  169.72  29.47
357.3  598.14  173.37  28.98
358.8  616.87  185.93  30.14
360.4  668.33  185.26  27.72
361.9  686.05  182.48  26.60
363.5  715.01  192.98  26.99
365.1  743.78  196.03  26.36
366.6  778.54  195.64  25.13
368.2  824.27  199.21  24.17
369.7  873.39  198.08  22.68
371.3  928.49  205.46  22.13
372.8  977.74  208.50  21.32
374.4  1016.27  217.16  21.37
375.9  1052.58  222.43  21.13
377.4  1084.71  224.64  20.71
379.0  1129.79  230.84  20.43
380.5  1157.14  233.07  20.14
382.1  1186.43  232.85  19.63
383.6  1234.64  234.74  19.01
385.2  1293.88  240.17  18.56
386.7  1345.63  245.48  18.24
388.3  1410.38  258.71  18.34
389.8  1464.46  270.47  18.47
391.3  1527.57  281.84  18.45
392.9  1567.60  298.91  19.07
394.4  1609.87  311.79  19.37
395.9  1662.63  328.65  19.77
397.5  1749.05  345.39  19.75
399.0  1827.74  351.02  19.21
400.6  1876.29  357.71  19.06
402.1  1904.04  353.63  18.57
403.6  1943.17  360.58  18.56
405.1  1994.81  369.25  18.51
406.7  2061.92  384.68  18.66
408.2  2135.06  406.00  19.02
409.7  2198.56  424.70  19.32
411.3  2272.05  434.83  19.14
412.8  2335.64  455.36  19.50
414.3  2399.77  476.44  19.85
415.8  2475.00  490.00  19.80
417.4  2547.71  506.68  19.89
418.9  2612.23  519.83  19.90
420.4  2658.25  533.40  20.07
421.9  2705.56  540.79  19.99
423.5  2743.63  549.81  20.04
425.0  2788.02  560.98  20.12
426.5  2844.45  569.32  20.02
428.0  2917.63  584.55  20.04
429.5  3009.90  598.56  19.89
431.1  3112.45  622.30  19.99
432.6  3227.88  646.47  20.03
434.1  3329.29  667.59  20.05
435.6  3423.98  687.57  20.08
437.1  3517.80  710.58  20.20
438.6  3607.74  724.43  20.08
440.1  3694.39  748.33  20.26
441.6  3790.73  771.10  20.34
443.1  3873.83  790.56  20.41
444.7  3959.99  818.44  20.67
446.2  4024.76  842.84  20.94
447.7  4101.41  862.71  21.03
449.2  4174.20  885.60  21.22
450.7  4238.00  901.33  21.27
452.2  4313.18  917.78  21.28
453.7  4393.64  946.15  21.53
455.2  4491.99  976.72  21.74
456.7  4618.24  1018.22  22.05
458.2  4761.06  1062.72  22.32
459.7  4899.13  1105.77  22.57
461.2  5044.37  1146.54  22.73
462.7  5165.05  1189.75  23.03
464.2  5287.79  1228.79  23.24
465.7  5408.14  1267.44  23.44
467.2  5518.98  1300.53  23.56
468.7  5631.00  1339.20  23.78
470.2  5705.20  1375.02  24.10
471.7  5821.13  1409.80  24.22
473.2  6011.22  1434.67  23.87
474.6  6153.75  1451.73  23.59
476.1  6204.18  1468.17  23.66
477.6  6220.94  1484.83  23.87
479.1  6250.52  1502.47  24.04
480.6  6293.37  1521.61  24.18
482.1  6374.96  1547.01  24.27
483.6  6474.12  1586.97  24.51
485.1  6599.29  1632.10  24.73
486.6  6739.10  1687.70  25.04
488.0  6898.13  1753.70  25.42
489.5  7058.36  1824.73  25.85
491.0  7224.81  1904.47  26.36
492.5  7392.87  1984.82  26.85
494.0  7557.79  2075.80  27.47
495.4  7702.20  2156.88  28.00
496.9  7844.83  2249.60  28.68
498.4  7990.29  2338.81  29.27
499.9  8131.50  2435.42  29.95
501.4  8263.45  2532.81  30.65
502.8  8392.79  2629.92  31.34
504.3  8499.60  2726.16  32.07
505.8  8611.18  2823.85  32.79
507.2  8674.01  2918.80  33.65
508.7  8728.20  3001.41  34.39
510.2  8764.92  3084.54  35.19
511.6  8789.76  3160.77  35.96
513.1  8840.43  3245.57  36.71
514.6  8904.34  3337.74  37.48
516.0  8958.85  3425.73  38.24
517.5  9056.55  3536.12  39.04
519.0  9171.31  3656.41  39.87
520.5  9287.32  3778.12  40.68
521.9  9437.16  3918.38  41.52
523.4  9612.27  4062.36  42.26
524.8  9785.79  4208.92  43.01
526.3  9984.58  4366.69  43.73
527.8  10184.06  4522.20  44.40
529.2  10366.76  4670.02  45.05
530.7  10567.61  4826.04  45.67
532.1  10746.40  4975.09  46.30
533.6  10959.02  5130.88  46.82
535.0  11168.56  5288.28  47.35
536.5  11376.00  5449.82  47.91
538.0  11592.92  5611.51  48.40
539.4  11785.91  5773.21  48.98
540.9  12037.93  5942.16  49.36
542.3  12246.63  6092.25  49.75
543.8  12400.56  6207.17  50.06
545.2  12445.48  6286.93  50.52
546.6  12442.01  6341.22  50.97
548.1  12455.19  6402.16  51.40
549.5  12460.55  6451.14  51.77
551.0  12456.77  6495.81  52.15
552.4  12484.13  6550.55  52.47
553.9  12491.52  6593.17  52.78
555.3  12509.64  6643.96  53.11
556.8  12569.08  6713.39  53.41
558.2  12630.94  6788.48  53.74
559.6  12713.51  6869.55  54.03
561.1  12831.00  6971.90  54.34
562.5  12959.42  7083.91  54.66
564.0  13129.35  7222.32  55.01
565.4  13288.41  7353.01  55.33
566.8  13487.87  7510.05  55.68
568.3  13678.39  7657.45  55.98
569.7  13879.32  7811.01  56.28
571.1  14074.77  7955.55  56.52
572.6  14269.77  8103.67  56.79
574.0  14463.08  8246.92  57.02
575.4  14650.03  8385.08  57.24
576.9  14818.07  8517.20  57.48
578.3  14977.46  8641.25  57.70
579.7  15131.24  8767.72  57.94
581.1  15254.19  8878.42  58.20
582.6  15387.18  8999.32  58.49
584.0  15508.86  9103.84  58.70
585.4  15681.05  9225.69  58.83
586.8  15909.04  9379.62  58.96
588.3  16162.38  9533.47  58.99
589.7  16371.81  9672.62  59.08
591.1  16519.39  9769.96  59.14
592.5  16589.78  9833.73  59.28
594.0  16627.80  9885.22  59.45
595.4  16637.76  9906.50  59.54
596.8  16651.64  9936.78  59.67
598.2  16659.51  9958.07  59.77
599.6  16659.36  9977.40  59.89
601.0  16705.59  10015.85  59.96
602.4  16752.94  10052.22  60.00
603.9  16822.23  10104.72  60.07
605.3  16905.11  10165.48  60.13
606.7  16973.10  10217.28  60.20
608.1  17114.04  10304.93  60.21
609.5  17255.15  10400.58  60.28
610.9  17434.91  10512.03  60.29
612.3  17598.49  10614.71  60.32
613.7  17818.60  10745.28  60.30
615.1  17967.42  10827.86  60.26
616.5  18122.06  10907.58  60.19
617.9  18356.64  11050.63  60.20
619.3  18578.68  11194.12  60.25
620.7  18848.67  11379.07  60.37
622.1  19119.58  11466.15  59.97
623.5  19414.06  11493.07  59.20
624.9  19741.18  11494.18  58.22
626.3  19952.52  11433.67  57.30
627.7  19741.37  11234.82  56.91
629.1  19544.02  11189.55  57.25
630.5  19457.12  11258.97  57.87
631.9  19461.81  11388.53  58.52
633.3  19457.49  11535.61  59.29
634.7  19533.17  11721.76  60.01
636.1  19566.68  11837.75  60.50
637.5  19597.55  11923.06  60.84
638.9  19677.50  12031.30  61.14
640.2  19731.43  12124.22  61.45
641.6  19754.28  12186.41  61.69
643.0  19715.36  12228.61  62.03
644.4  19707.26  12268.15  62.25
645.8  19650.11  12268.51  62.43
647.2  19716.78  12336.17  62.57
648.5  19765.84  12387.63  62.67
649.9  19671.60  12370.46  62.88
651.3  19608.23  12388.58  63.18
652.7  19503.68  12372.94  63.44
654.1  19390.95  12139.28  62.60
655.5  19238.75  11839.35  61.54
656.8  19118.09  11546.91  60.40
658.2  19225.93  11421.43  59.41
659.6  19449.31  11382.74  58.53
660.9  19643.18  11325.92  57.66
662.3  19825.21  11264.25  56.82
663.7  20008.80  11193.84  55.94
665.0  20165.89  11121.38  55.15
666.4  20328.89  11061.24  54.41
667.8  20535.62  11037.82  53.75
669.1  20711.76  11005.37  53.14
670.5  20914.18  11003.08  52.61
671.9  21055.86  10981.73  52.16
673.2  21237.33  11005.92  51.82
674.6  21400.77  11055.35  51.66
676.0  21596.49  11143.97  51.60
677.3  21793.24  11262.44  51.68
678.7  21992.69  11416.63  51.91
680.0  22269.19  11649.43  52.31
681.4  22542.00  11939.32  52.96
682.8  22829.63  12291.07  53.84
684.1  23112.18  12718.68  55.03
685.5  23364.31  13179.79  56.41
686.8  23617.23  13692.69  57.98
688.2  23841.32  14216.20  59.63
689.5  23927.84  14682.08  61.36
690.9  23997.39  15153.98  63.15
692.2  24047.78  15607.70  64.90
693.6  24110.83  16070.31  66.65
694.9  24095.99  16460.07  68.31
696.2  24121.97  16844.63  69.83
697.6  24149.95  17186.77  71.17
698.9  24174.48  17527.14  72.50
700.3  24215.57  17851.62  73.72
701.6  24264.40  18160.08  74.84
703.0  24323.35  18434.54  75.79
704.3  24329.34  18659.40  76.70
705.6  24327.41  18842.92  77.46
707.0  24334.75  19012.87  78.13
708.3  24282.08  19108.54  78.69
709.6  24223.21  19194.66  79.24
711.0  24124.28  19228.13  79.70
712.3  24015.02  19254.73  80.18
713.6  23977.17  19332.27  80.63
714.9  23907.38  19366.06  81.00
716.3  23880.58  19433.09  81.38
717.6  23876.83  19511.62  81.72
718.9  23805.06  19515.98  81.98
720.2  23675.16  19456.64  82.18
721.6  23576.15  19421.44  82.38
722.9  23446.45  19368.65  82.61
724.2  23274.82  19286.42  82.86
725.5  23133.68  19238.86  83.16
726.8  23009.81  19163.18  83.28
728.1  22933.91  19117.37  83.36
729.5  22856.87  19082.19  83.49
730.8  22796.53  19059.57  83.61
732.1  22719.29  19027.09  83.75
733.4  22660.56  19008.26  83.88
734.7  22602.67  18977.96  83.96
736.0  22569.89  18984.40  84.11
737.3  22520.76  18971.56  84.24
738.6  22554.56  19040.31  84.42
739.9  22633.16  19186.76  84.77
741.2  22698.59  19283.27  84.95
742.5  22841.25  19458.51  85.19
743.8  23091.34  19739.34  85.48
745.1  23491.07  20140.18  85.74
746.4  23957.57  20584.02  85.92
747.7  24466.55  21003.19  85.84
749.0  24948.63  21389.05  85.73
750.3  25229.30  21578.11  85.53
751.6  25175.69  21510.54  85.44
752.9  24925.64  21310.20  85.50
754.2  24630.59  21097.61  85.66
755.4  24314.44  20893.11  85.93
756.7  24210.69  20864.63  86.18
758.0  24235.24  20942.42  86.41
759.3  24394.18  21147.93  86.69
760.6  24621.52  21416.27  86.98
761.9  24823.09  21658.73  87.25
763.1  24955.30  21810.33  87.40
764.4  25125.21  21988.79  87.52
765.7  25257.38  22132.93  87.63
767.0  25349.99  22252.24  87.78
768.2  25431.84  22358.79  87.92
769.5  25509.93  22446.14  87.99
770.8  25646.87  22586.10  88.07
772.0  25674.66  22653.49  88.23
773.3  25762.96  22742.16  88.27
774.6  25839.71  22857.15  88.46
775.8  25921.43  22942.27  88.51
777.1  25948.26  23002.08  88.65
778.4  25918.05  22984.81  88.68
779.6  25945.86  23026.13  88.75
780.9  25904.00  23032.00  88.91
782.1  25811.51  22998.77  89.10
783.4  25819.04  23029.76  89.20
784.6  25849.06  23082.33  89.30
785.9  26028.56  23334.72  89.65
787.1  26416.14  23723.29  89.81
788.4  26716.91  23956.85  89.67
789.6  26732.54  23844.38  89.20
790.9  26499.75  23545.41  88.85
792.1  26215.36  23305.58  88.90
793.4  25939.41  23087.07  89.00
794.6  25766.06  22927.65  88.98
795.8  25608.38  22806.67  89.06
797.1  25427.85  22685.90  89.22
798.3  25301.10  22610.06  89.36
799.5  25235.55  22567.88  89.43
800.8  25155.70  22511.61  89.49
802.0  25074.70  22456.57  89.56
803.2  24986.56  22370.99  89.53
804.5  24925.76  22326.68  89.57
805.7  24855.66  22262.76  89.57
806.9  24776.64  22210.51  89.64
808.1  24708.89  22159.55  89.68
809.4  24677.19  22139.98  89.72
810.6  24617.78  22116.03  89.84
811.8  24606.91  22120.54  89.90
813.0  24601.75  22135.66  89.98
814.2  24620.30  22163.39  90.02
815.4  24684.78  22209.48  89.97
816.6  24715.54  22203.72  89.84
817.9  24752.29  22197.74  89.68
819.1  24717.85  22127.91  89.52
820.3  24615.89  22021.43  89.46
821.5  24558.22  21943.05  89.35
822.7  24525.20  21892.58  89.27
823.9  24512.51  21885.33  89.28
825.1  24512.73  21850.64  89.14
826.3  24527.23  21820.35  88.96
827.5  24554.23  21825.57  88.89
828.7  24585.24  21813.22  88.72
829.9  24620.63  21793.14  88.52
831.0  24677.45  21832.38  88.47
832.2  24735.00  21861.96  88.38
833.4  24800.15  21874.82  88.20
834.6  24827.34  21910.63  88.25
835.8  24886.58  21937.23  88.15
837.0  24941.18  22004.87  88.23
838.1  25036.55  22083.42  88.20
839.3  25073.20  22126.03  88.25
840.5  25138.07  22183.69  88.25
841.7  25214.76  22275.70  88.34
842.9  25311.78  22387.31  88.45
844.0  25352.29  22455.18  88.57
845.2  25454.19  22537.85  88.54
846.4  25527.43  22598.17  88.53
847.5  25656.16  22730.25  88.60
848.7  25745.00  22824.28  88.66
849.9  25879.71  22897.78  88.48
851.0  25913.04  22899.50  88.37
852.2  25966.07  22912.10  88.24
853.3  25941.98  22878.63  88.19
854.5  25934.86  22873.05  88.19
855.6  25916.94  22861.74  88.21
856.8  25944.85  22891.11  88.23
857.9  25943.54  22896.30  88.25
859.1  25996.60  22958.19  88.31
860.2  26027.46  22968.89  88.25
861.4  26023.97  22997.71  88.37
862.5  26059.24  23001.61  88.27
863.7  26115.12  23046.51  88.25
864.8  26101.25  23050.67  88.31
865.9  26082.46  23034.17  88.31
867.1  26099.25  23044.12  88.29
868.2  26099.69  23049.86  88.31
869.3  26128.19  23060.44  88.26
870.5  26099.47  23018.65  88.20
871.6  26087.08  23035.31  88.30
872.7  26136.21  23083.85  88.32
873.9  26148.82  23088.53  88.30
875.0  26142.73  23080.17  88.29
876.1  26142.29  23068.47  88.24
877.2  26184.05  23068.28  88.10
878.3  26169.01  23039.03  88.04
879.4  26191.11  23051.53  88.01
880.5  26214.48  23051.52  87.93
881.7  26220.35  23021.18  87.80
882.8  26271.44  23021.58  87.63
883.9  26272.50  23033.39  87.67
885.0  26275.91  22945.47  87.33
886.1  26278.81  22913.95  87.20
887.2  26194.66  22768.49  86.92
888.3  26154.69  22695.87  86.78
889.4  26083.75  22611.32  86.69
890.5  26060.47  22530.51  86.45
891.6  26043.45  22478.05  86.31
892.7  26025.13  22452.27  86.27
893.8  26046.70  22476.29  86.29
894.9  26070.72  22468.32  86.18
896.0  26059.51  22422.47  86.04
897.0  26054.12  22406.66  86.00
898.1  26079.30  22387.83  85.85
899.2  26095.96  22374.90  85.74
900.3  26052.56  22309.39  85.63
901.4  26029.33  22247.64  85.47
902.4  26018.83  22248.19  85.51
903.5  26017.27  22171.49  85.22
904.6  26012.16  22162.93  85.20
905.7  26050.43  22159.33  85.06
906.7  26024.14  22136.09  85.06
907.8  26076.86  22114.09  84.80
908.9  26057.48  22043.18  84.59
909.9  26017.06  21996.87  84.55
911.0  26009.49  21942.65  84.36
912.1  25979.15  21871.73  84.19
913.1  25944.88  21807.14  84.05
914.2  25856.17  21696.22  83.91
915.2  25844.13  21663.65  83.82
916.3  25883.78  21610.18  83.49
917.3  25847.25  21589.72  83.53
918.4  25819.06  21484.17  83.21
919.4  25792.96  21398.14  82.96
920.5  25804.34  21350.05  82.74
921.5  25824.68  21277.20  82.39
922.6  25820.42  21195.60  82.09
923.6  25802.74  21136.01  81.91
924.7  25837.63  21074.30  81.56
925.7  25830.51  21010.48  81.34
926.7  25889.20  20921.99  80.81
927.8  25949.67  20858.74  80.38
928.8  26061.51  20843.24  79.98
929.9  26114.55  20811.75  79.69
930.9  26214.58  20817.91  79.41
931.9  26363.30  20846.15  79.07
932.9  26568.63  20896.62  78.65
934.0  26604.58  20844.65  78.35
935.0  26610.78  20752.91  77.99
936.0  26639.41  20654.52  77.53
937.0  26632.91  20562.49  77.21
938.1  26589.57  20457.80  76.94
939.1  26594.73  20372.07  76.60
940.1  26647.30  20296.46  76.17
941.1  26757.94  20322.09  75.95
942.1  26950.86  20305.94  75.34
943.1  27064.46  20278.47  74.93
944.1  27200.04  20282.28  74.57
945.2  27250.86  20207.04  74.15
946.2  27341.46  20137.03  73.65
947.2  27385.31  20028.62  73.14
948.2  27528.14  19961.13  72.51
949.2  27562.84  19915.79  72.26
950.2  27601.23  19799.26  71.73
951.2  27696.06  19723.54  71.21
952.2  27776.58  19617.94  70.63
953.2  27874.44  19537.25  70.09
954.2  27994.28  19497.00  69.65
955.2  28013.52  19389.52  69.21
956.2  27975.49  19268.18  68.88
957.2  28074.45  19209.09  68.42
958.2  28163.05  19166.75  68.06
959.2  28188.45  19136.40  67.89
960.1  28244.69  19105.52  67.64
961.1  28322.00  19136.64  67.57
962.1  28304.06  19118.75  67.55
963.1  28357.97  19069.49  67.25
964.1  28464.51  19093.39  67.08
965.1  28543.56  19116.00  66.97
966.1  28584.14  19158.39  67.02
967.0  28655.80  19183.43  66.94
968.0  28697.14  19188.25  66.86
969.0  28718.80  19180.11  66.79
970.0  28760.47  19208.96  66.79
971.0  28834.42  19248.77  66.76
971.9  28848.78  19275.03  66.81
972.9  28890.31  19260.21  66.67
973.9  28948.56  19222.02  66.40
974.9  29046.70  19236.99  66.23
975.8  29063.68  19220.63  66.13
976.8  29052.58  19254.40  66.27
977.8  29165.54  19263.17  66.05
978.8  29197.88  19299.54  66.10
979.7  29189.32  19391.09  66.43
981.4  29653.05  18550.69  62.56
985.3  29580.67  18623.41  62.96
989.3  29694.74  18936.34  63.77
993.3  29811.28  19321.82  64.81
997.2  29873.76  19591.23  65.58
1001.2  29847.48  19778.89  66.27
1005.2  29766.32  19949.87  67.02
1009.1  29802.16  20153.79  67.63
1013.1  29912.80  20432.60  68.31
1017.1  29980.27  20732.59  69.15
1021.0  29997.45  20960.84  69.88
1025.0  29986.05  21178.48  70.63
1029.0  29874.56  21300.81  71.30
1032.9  29757.39  21403.50  71.93
1036.9  29719.10  21578.67  72.61
1040.9  29786.91  21818.86  73.25
1044.8  29914.06  22103.44  73.89
1048.8  30017.23  22370.89  74.53
1052.7  30081.05  22600.58  75.13
1056.7  30106.96  22752.11  75.57
1060.7  30124.55  22861.24  75.89
1064.6  30126.20  22949.77  76.18
1068.6  30068.46  22947.66  76.32
1072.5  30024.99  22913.93  76.32
1076.5  29992.38  22873.33  76.26
1080.4  29983.51  22832.63  76.15
1084.4  30049.89  22799.95  75.87
1088.3  30134.74  22740.24  75.46
1092.3  30115.74  22599.70  75.04
1096.2  30104.84  22445.82  74.56
1100.2  30142.18  22320.50  74.05
1104.1  30082.71  22123.98  73.54
1108.1  30052.27  21944.02  73.02
1112.0  29977.43  21705.77  72.41
1116.0  29868.35  21387.21  71.60
1119.9  29779.89  21042.38  70.66
1123.9  29822.35  20748.39  69.57
1127.8  29798.40  20311.04  68.16
1131.8  29786.58  19737.07  66.26
1135.7  29821.64  19060.94  63.92
1139.6  29831.38  18297.89  61.34
1143.6  29819.95  17571.44  58.93
1147.5  29803.64  16973.91  56.95
1151.4  29713.98  16464.47  55.41
1155.4  29731.43  16143.84  54.30
1159.3  29760.66  15964.47  53.64
1163.2  29674.15  15796.33  53.23
1167.2  29672.28  15715.24  52.96
1171.1  29681.80  15669.48  52.79
1175.0  29651.52  15606.80  52.63
1179.0  29638.87  15559.34  52.50
1182.9  29697.98  15541.33  52.33
1186.8  29706.14  15494.31  52.16
1190.7  29571.10  15381.38  52.01
1194.7  29411.94  15270.99  51.92
1198.6  29289.65  15204.42  51.91
1202.5  29196.66  15176.88  51.98
1206.4  29112.98  15159.29  52.07
1210.3  29056.59  15162.93  52.18
1214.2  29008.58  15180.70  52.33
1218.2  28915.95  15184.72  52.51
1222.1  28833.10  15218.93  52.78
1226.0  28785.60  15270.81  53.05
1229.9  28734.48  15308.52  53.28
1233.8  28673.70  15325.20  53.45
1237.7  28644.25  15361.08  53.63
1241.6  28596.57  15411.68  53.89
1245.5  28494.07  15420.19  54.12
1249.4  28422.55  15411.27  54.22
1253.3  28356.92  15392.29  54.28
1257.2  28323.43  15399.74  54.37
1261.1  28264.79  15412.03  54.53
1265.0  28184.91  15399.49  54.64
1268.9  28067.43  15331.93  54.63
1272.8  28106.70  15323.50  54.52
1276.7  28238.01  15349.43  54.36
1280.6  28297.17  15316.90  54.13
1284.5  28250.81  15208.52  53.83
1288.4  28234.52  15096.99  53.47
1292.3  28165.50  14929.75  53.01
1296.2  28076.33  14743.35  52.51
1300.1  27971.71  14535.29  51.96
1303.9  27830.79  14270.44  51.28
1307.8  27679.51  13983.91  50.52
1311.7  27513.83  13683.94  49.73
1315.6  27356.90  13365.58  48.86
1319.5  27190.78  13016.83  47.87
1323.3  27036.43  12666.37  46.85
1327.2  26898.46  12324.30  45.82
1331.1  26745.75  11969.81  44.75
1335.0  26551.82  11583.32  43.63
1338.8  26417.20  11241.59  42.55
1342.7  26306.22  10957.67  41.65
1346.5  26068.84  10656.95  40.88
1350.4  25867.11  10386.99  40.16
1354.3  25587.95  10083.90  39.41
1358.1  25293.52  9750.61  38.55
1362.0  25095.25  9453.93  37.67
1365.8  25024.00  9203.56  36.78
1369.7  25106.98  8997.65  35.84
1373.5  25078.13  8727.33  34.80
1377.4  24917.97  8325.59  33.41
1381.2  24782.40  7806.70  31.50
1385.1  24754.66  7280.02  29.41
1389.0  24692.16  6788.84  27.49
1392.8  24567.88  6313.32  25.70
1396.6  24460.52  5867.88  23.99
1400.5  24320.99  5471.71  22.50
1404.3  24225.89  5159.94  21.30
1408.2  24204.64  4926.78  20.35
1412.0  24174.50  4742.61  19.62
1415.8  24201.79  4618.05  19.08
1419.6  24176.54  4511.50  18.66
1423.5  24162.30  4428.19  18.33
1427.3  24156.22  4372.06  18.10
1431.1  24149.78  4332.25  17.94
1434.9  24082.82  4286.28  17.80
1438.8  24045.91  4260.37  17.72
1442.6  24021.66  4246.72  17.68
1446.4  23948.95  4215.85  17.60
1450.2  23899.20  4202.28  17.58
1454.0  23823.72  4189.12  17.58
1457.8  23805.13  4189.90  17.60
1461.6  23794.65  4208.66  17.69
