/*** Spectra Vista SIG Data ***/
name= MT.sig
comm= Averaged Ref/Tar of files: MT1,MT2,MT3
data=
346.4  509.60  349.29  68.54
347.9  549.06  369.18  67.24
349.5  608.40  391.04  64.27
351.1  655.20  420.16  64.13
352.6  708.40  450.13  63.54
354.2  752.68  477.79  63.48
355.7  818.30  521.96  63.79
357.3  873.81  558.27  63.89
358.8  891.23  579.01  64.97
360.4  967.31  619.08  64.00
361.9  1009.93  639.62  63.33
363.5  1059.53  671.73  63.40
365.1  1102.67  693.50  62.89
366.6  1156.59  739.99  63.98
368.2  1218.77  787.90  64.65
369.7  1306.00  817.34  62.58
371.3  1379.56  873.61  63.33
372.8  1457.48  924.07  63.40
374.4  1528.58  964.54  63.10
375.9  1575.56  999.62  63.45
377.4  1632.76  1036.46  63.48
379.0  1683.54  1066.14  63.33
380.5  1741.87  1095.59  62.90
382.1  1805.51  1133.74  62.79
383.6  1862.60  1168.97  62.76
385.2  1949.75  1222.83  62.72
386.7  2036.04  1274.33  62.59
388.3  2135.96  1337.01  62.60
389.8  2212.47  1392.63  62.94
391.3  2314.34  1461.20  63.14
392.9  2392.65  1504.06  62.86
394.4  2474.90  1551.02  62.67
395.9  2552.82  1616.05  63.30
397.5  2664.75  1706.52  64.04
399.0  2774.82  1772.63  63.88
400.6  2852.64  1819.69  63.79
402.1  2910.24  1840.40  63.24
403.6  2965.71  1870.05  63.06
405.1  3036.77  1920.16  63.23
406.7  3133.76  1983.15  63.28
408.2  3234.33  2048.56  63.34
409.7  3330.88  2113.81  63.46
411.3  3437.91  2181.78  63.46
412.8  3528.93  2243.60  63.58
414.3  3634.54  2303.92  63.39
415.8  3740.00  2374.17  63.48
417.4  3868.37  2445.67  63.22
418.9  3954.39  2503.86  63.32
420.4  4037.85  2553.98  63.25
421.9  4106.74  2586.17  62.97
423.5  4196.00  2629.21  62.66
425.0  4263.51  2670.03  62.63
426.5  4364.50  2721.90  62.36
428.0  4488.82  2794.14  62.25
429.5  4615.58  2874.29  62.27
431.1  4756.23  2970.87  62.46
432.6  4917.76  3074.08  62.51
434.1  5064.68  3178.82  62.76
435.6  5199.35  3270.80  62.91
437.1  5333.25  3364.40  63.08
438.6  5454.84  3447.92  63.21
440.1  5584.70  3530.17  63.21
441.6  5717.14  3615.85  63.25
443.1  5852.25  3705.75  63.32
444.7  5982.11  3795.59  63.45
446.2  6104.50  3869.69  63.39
447.7  6213.60  3947.51  63.53
449.2  6315.84  4029.12  63.79
450.7  6414.72  4091.36  63.78
452.2  6543.45  4167.11  63.68
453.7  6682.65  4254.57  63.67
455.2  6842.54  4366.04  63.81
456.7  7029.44  4499.15  64.00
458.2  7231.16  4648.93  64.29
459.7  7428.75  4805.50  64.69
461.2  7633.63  4957.89  64.95
462.7  7815.14  5099.11  65.25
464.2  8000.76  5242.95  65.53
465.7  8191.53  5392.18  65.83
467.2  8352.58  5532.45  66.24
468.7  8552.00  5670.00  66.30
470.2  8711.17  5792.38  66.49
471.7  8854.00  5956.50  67.27
473.2  9050.37  6204.22  68.55
474.6  9252.88  6360.67  68.74
476.1  9378.88  6423.60  68.49
477.6  9464.51  6490.42  68.58
479.1  9567.20  6575.47  68.73
480.6  9658.16  6670.45  69.07
482.1  9797.74  6799.14  69.39
483.6  9963.22  6949.58  69.75
485.1  10140.49  7133.29  70.34
486.6  10356.19  7341.26  70.89
488.0  10562.50  7562.21  71.59
489.5  10784.97  7798.84  72.31
491.0  10998.86  8034.02  73.04
492.5  11224.98  8283.60  73.80
494.0  11462.99  8549.42  74.58
495.4  11663.85  8788.45  75.35
496.9  11870.36  9033.03  76.10
498.4  12074.30  9284.49  76.89
499.9  12278.41  9536.13  77.67
501.4  12476.75  9787.71  78.45
502.8  12664.51  10032.94  79.22
504.3  12846.60  10270.20  79.94
505.8  13033.73  10506.30  80.61
507.2  13172.68  10696.41  81.20
508.7  13289.99  10863.63  81.74
510.2  13412.81  11016.39  82.13
511.6  13494.72  11151.66  82.64
513.1  13630.43  11317.24  83.03
514.6  13795.53  11496.28  83.33
516.0  13946.28  11656.96  83.58
517.5  14135.83  11869.53  83.97
519.0  14365.19  12099.98  84.23
520.5  14579.60  12324.60  84.53
521.9  14828.55  12589.86  84.90
523.4  15093.49  12873.25  85.29
524.8  15349.14  13159.20  85.73
526.3  15633.70  13463.06  86.12
527.8  15915.89  13769.92  86.52
529.2  16178.21  14045.95  86.82
530.7  16455.24  14347.78  87.19
532.1  16698.15  14615.59  87.53
533.6  16994.07  14918.26  87.79
535.0  17295.55  15222.90  88.02
536.5  17581.25  15519.35  88.27
538.0  17895.84  15819.71  88.40
539.4  18160.64  16102.52  88.67
540.9  18488.86  16454.74  89.00
542.3  18738.28  16756.19  89.42
543.8  18940.29  16967.17  89.58
545.2  19020.35  17035.25  89.56
546.6  19057.19  17062.87  89.54
548.1  19121.11  17097.11  89.41
549.5  19166.91  17130.25  89.37
551.0  19217.70  17149.11  89.24
552.4  19311.21  17199.54  89.07
553.9  19371.38  17225.17  88.92
555.3  19461.20  17273.88  88.76
556.8  19596.88  17377.16  88.67
558.2  19743.75  17478.00  88.52
559.6  19902.71  17604.63  88.45
561.1  20117.50  17779.67  88.38
562.5  20332.52  17972.57  88.39
564.0  20611.34  18224.86  88.42
565.4  20865.50  18458.01  88.46
566.8  21177.73  18744.23  88.51
568.3  21463.05  19022.53  88.63
569.7  21776.78  19311.25  88.68
571.1  22080.65  19592.27  88.73
572.6  22373.82  19875.78  88.83
574.0  22675.95  20149.25  88.86
575.4  22958.44  20410.88  88.90
576.9  23231.09  20658.33  88.93
578.3  23477.03  20884.55  88.96
579.7  23721.74  21097.54  88.94
581.1  23920.49  21262.66  88.89
582.6  24132.47  21451.31  88.89
584.0  24305.80  21608.45  88.90
585.4  24549.94  21836.46  88.95
586.8  24845.17  22133.35  89.09
588.3  25201.80  22463.22  89.13
589.7  25517.70  22744.80  89.13
591.1  25735.55  22914.25  89.04
592.5  25883.00  23008.12  88.89
594.0  25998.42  23046.56  88.65
595.4  26057.54  23047.69  88.45
596.8  26115.38  23053.75  88.28
598.2  26174.55  23046.12  88.05
599.6  26202.06  23040.48  87.93
601.0  26298.70  23085.79  87.78
602.4  26372.18  23129.23  87.70
603.9  26501.77  23220.28  87.62
605.3  26625.41  23327.10  87.61
606.7  26749.80  23419.20  87.55
608.1  26941.18  23603.84  87.61
609.5  27151.69  23804.89  87.67
610.9  27387.74  24046.29  87.80
612.3  27589.20  24275.84  87.99
613.7  27871.80  24581.41  88.19
615.1  28061.64  24801.12  88.38
616.5  28235.16  25017.14  88.60
617.9  28534.12  25348.34  88.84
619.3  28808.15  25661.28  89.08
620.7  29149.14  26040.26  89.33
622.1  29527.66  26447.61  89.57
623.5  29951.83  26915.24  89.86
624.9  30436.35  27446.74  90.18
626.3  30757.12  27815.11  90.43
627.7  30461.43  27579.43  90.54
629.1  30188.34  27346.80  90.59
630.5  30083.03  27253.12  90.59
631.9  30076.12  27278.93  90.70
633.3  30078.24  27290.02  90.73
634.7  30183.54  27416.86  90.83
636.1  30268.81  27482.21  90.79
637.5  30374.19  27564.57  90.75
638.9  30520.15  27683.41  90.71
640.2  30643.60  27783.84  90.67
641.6  30733.56  27815.58  90.51
643.0  30777.50  27786.56  90.28
644.4  30869.16  27776.41  89.98
645.8  30855.38  27685.95  89.73
647.2  31023.20  27785.85  89.56
648.5  31185.15  27838.50  89.27
649.9  31117.13  27700.79  89.02
651.3  31099.80  27579.10  88.68
652.7  31059.00  27384.45  88.17
654.1  30961.56  27194.48  87.83
655.5  30829.51  27038.07  87.70
656.8  30685.81  26882.09  87.60
658.2  30861.69  27058.55  87.68
659.6  31181.89  27385.09  87.82
660.9  31452.29  27641.90  87.89
662.3  31767.46  27898.85  87.82
663.7  32102.70  28142.80  87.66
665.0  32334.98  28358.10  87.70
666.4  32575.38  28559.64  87.67
667.8  32873.84  28831.65  87.70
669.1  33084.01  29049.23  87.80
670.5  33327.47  29311.92  87.95
671.9  33513.12  29475.96  87.95
673.2  33742.50  29698.86  88.02
674.6  33950.66  29898.20  88.06
676.0  34219.05  30147.97  88.10
677.3  34494.18  30386.58  88.09
678.7  34767.13  30658.79  88.18
680.0  35103.31  31017.96  88.36
681.4  35420.13  31398.32  88.65
682.8  35763.00  31771.14  88.84
684.1  36073.44  32143.80  89.11
685.5  36318.59  32472.99  89.41
686.8  36607.26  32806.56  89.62
688.2  36844.31  33097.23  89.83
689.5  36898.97  33215.56  90.02
690.9  36950.15  33293.19  90.10
692.2  37008.15  33369.30  90.17
693.6  37024.93  33429.94  90.29
694.9  37005.38  33402.32  90.26
696.2  37027.13  33442.58  90.32
697.6  37047.86  33480.93  90.37
698.9  37049.76  33521.84  90.48
700.3  37075.62  33563.68  90.53
701.6  37124.24  33631.71  90.59
703.0  37178.40  33703.57  90.65
704.3  37172.20  33720.00  90.71
705.6  37157.22  33725.52  90.76
707.0  37168.46  33734.87  90.76
708.3  37076.04  33659.20  90.78
709.6  36967.81  33571.74  90.81
711.0  36867.73  33438.26  90.70
712.3  36770.31  33299.58  90.56
713.6  36755.88  33229.84  90.41
714.9  36684.64  33121.74  90.29
716.3  36701.44  33080.59  90.13
717.6  36734.04  33060.84  90.00
718.9  36680.73  32960.16  89.86
720.2  36496.25  32766.86  89.78
721.6  36394.28  32609.94  89.60
722.9  36240.12  32408.47  89.43
724.2  36067.30  32147.59  89.13
725.5  35963.70  31941.24  88.82
726.8  35833.96  31726.83  88.54
728.1  35810.80  31594.03  88.22
729.5  35779.10  31439.90  87.87
730.8  35779.13  31306.05  87.50
732.1  35704.25  31142.42  87.22
733.4  35690.92  31020.18  86.91
734.7  35685.89  30898.56  86.58
736.0  35729.66  30845.60  86.33
737.3  35717.44  30733.24  86.05
738.6  35830.21  30769.38  85.88
739.9  36014.88  30887.46  85.76
741.2  36161.58  30975.49  85.66
742.5  36363.94  31173.61  85.73
743.8  36737.66  31523.80  85.81
745.1  37309.08  32054.28  85.92
746.4  37926.98  32701.46  86.22
747.7  38536.99  33377.49  86.61
749.0  39118.92  34027.51  86.98
750.3  39493.02  34403.80  87.11
751.6  39440.80  34349.90  87.09
752.9  39084.79  33987.36  86.96
754.2  38731.25  33584.01  86.71
755.4  38386.91  33151.57  86.36
756.7  38244.09  32997.98  86.28
758.0  38261.36  33011.54  86.28
759.3  38489.95  33220.07  86.31
760.6  38786.44  33508.35  86.39
761.9  39062.28  33776.04  86.47
763.1  39197.21  33937.86  86.58
764.4  39371.54  34130.11  86.69
765.7  39490.75  34276.67  86.80
767.0  39577.16  34399.94  86.92
768.2  39644.64  34506.08  87.04
769.5  39697.68  34574.85  87.10
770.8  39836.32  34746.07  87.22
772.0  39856.44  34791.81  87.29
773.3  39898.95  34864.08  87.38
774.6  39978.84  34970.77  87.47
775.8  40054.79  35063.98  87.54
777.1  40085.96  35105.95  87.58
778.4  40059.57  35071.78  87.55
779.6  39999.54  35070.01  87.68
780.9  39948.00  35012.00  87.64
782.1  39837.20  34880.96  87.56
783.4  39802.88  34895.47  87.67
784.6  39851.08  34927.65  87.65
785.9  40095.40  35177.51  87.73
787.1  40531.58  35670.30  88.01
788.4  40834.19  36100.51  88.41
789.6  40796.10  36115.76  88.53
790.9  40479.11  35792.86  88.42
792.1  40128.24  35410.91  88.24
793.4  39739.41  35057.14  88.22
794.6  39507.48  34824.17  88.15
795.8  39314.07  34634.27  88.10
797.1  39097.95  34410.10  88.01
798.3  38940.83  34258.13  87.97
799.5  38821.14  34191.61  88.07
800.8  38733.05  34098.09  88.03
802.0  38591.76  33997.93  88.10
803.2  38469.72  33892.47  88.10
804.5  38377.94  33810.21  88.10
805.7  38264.87  33733.33  88.16
806.9  38181.95  33629.80  88.08
808.1  38074.65  33547.67  88.11
809.4  38033.33  33515.49  88.12
810.6  37951.55  33447.05  88.13
811.8  37942.61  33409.73  88.05
813.0  37965.80  33416.66  88.02
814.2  37975.49  33439.97  88.06
815.4  38039.93  33532.54  88.15
816.6  38032.65  33560.45  88.24
817.9  38050.16  33591.44  88.28
819.1  37997.24  33532.92  88.25
820.3  37865.18  33393.97  88.19
821.5  37787.61  33287.09  88.09
822.7  37714.41  33199.68  88.03
823.9  37704.87  33153.31  87.93
825.1  37688.07  33111.81  87.86
826.3  37716.38  33073.94  87.69
827.5  37726.06  33023.95  87.54
828.7  37779.60  33000.72  87.35
829.9  37796.29  32947.91  87.17
831.0  37849.02  32941.56  87.03
832.2  37913.75  32952.26  86.91
833.4  37950.44  32950.56  86.83
834.6  37978.13  32943.75  86.74
835.8  38031.53  32982.08  86.72
837.0  38073.26  33022.89  86.74
838.1  38178.69  33099.44  86.70
839.3  38239.24  33137.10  86.66
840.5  38296.24  33211.77  86.72
841.7  38381.58  33293.34  86.74
842.9  38485.06  33378.74  86.73
844.0  38543.94  33447.36  86.78
845.2  38626.85  33551.61  86.86
846.4  38724.98  33651.55  86.90
847.5  38888.12  33770.44  86.84
848.7  39002.30  33920.34  86.97
849.9  39141.74  34065.26  87.03
851.0  39173.78  34108.20  87.07
852.2  39245.07  34148.26  87.01
853.3  39202.67  34137.68  87.08
854.5  39188.19  34112.78  87.05
855.6  39170.88  34107.69  87.07
856.8  39193.80  34088.70  86.97
857.9  39192.81  34090.57  86.98
859.1  39326.60  34166.13  86.88
860.2  39300.24  34159.01  86.92
861.4  39344.78  34157.40  86.82
862.5  39384.29  34168.79  86.76
863.7  39467.66  34210.55  86.68
864.8  39454.45  34185.43  86.65
865.9  39398.65  34128.86  86.62
867.1  39448.45  34123.38  86.50
868.2  39441.53  34111.28  86.49
869.3  39465.67  34106.22  86.42
870.5  39438.89  34026.83  86.28
871.6  39473.54  33986.87  86.10
872.7  39541.37  34005.92  86.00
873.9  39548.50  33982.75  85.93
875.0  39546.05  33928.77  85.80
876.1  39583.15  33896.14  85.63
877.2  39616.79  33870.34  85.49
878.3  39601.98  33808.77  85.37
879.4  39662.11  33820.21  85.27
880.5  39702.60  33801.72  85.14
881.7  39698.10  33723.95  84.95
882.8  39775.46  33744.96  84.84
883.9  39785.32  33728.05  84.78
885.0  39766.55  33659.31  84.64
886.1  39735.85  33579.97  84.51
887.2  39664.66  33420.57  84.26
888.3  39567.00  33302.23  84.17
889.4  39535.02  33167.79  83.89
890.5  39459.91  33066.36  83.80
891.6  39428.33  32965.21  83.61
892.7  39429.01  32902.74  83.45
893.8  39492.50  32857.42  83.20
894.9  39505.51  32798.00  83.02
896.0  39527.49  32711.67  82.76
897.0  39487.40  32676.90  82.75
898.1  39490.45  32617.70  82.60
899.2  39536.22  32587.26  82.42
900.3  39503.73  32464.36  82.18
901.4  39454.09  32348.89  81.99
902.4  39461.49  32308.48  81.87
903.5  39418.10  32195.57  81.68
904.6  39431.18  32140.07  81.51
905.7  39454.64  32101.67  81.36
906.7  39397.52  31994.62  81.21
907.8  39514.80  31973.41  80.92
908.9  39443.33  31853.97  80.76
909.9  39411.21  31763.92  80.60
911.0  39357.50  31622.65  80.35
912.1  39280.99  31498.23  80.19
913.1  39233.48  31369.00  79.95
914.2  39173.92  31205.44  79.66
915.2  39170.79  31078.89  79.34
916.3  39094.50  30994.20  79.28
917.3  39076.47  30866.51  78.99
918.4  39031.30  30731.90  78.74
919.4  39022.48  30564.88  78.33
920.5  39026.74  30432.18  77.98
921.5  39018.63  30337.39  77.75
922.6  38959.72  30136.99  77.35
923.6  39026.05  30026.04  76.94
924.7  39022.50  29881.42  76.57
925.7  39030.84  29734.68  76.18
926.7  39009.32  29586.09  75.84
927.8  39032.57  29468.37  75.50
928.8  39142.62  29373.75  75.04
929.9  39330.10  29276.19  74.44
930.9  39447.46  29202.16  74.03
931.9  39602.61  29119.57  73.53
932.9  39864.58  29162.68  73.15
934.0  39909.81  28981.29  72.62
935.0  39942.68  28816.07  72.14
936.0  39929.50  28581.99  71.58
937.0  39883.94  28369.58  71.13
938.1  39848.52  28158.35  70.66
939.1  39753.89  27924.67  70.24
940.1  39867.76  27768.23  69.65
941.1  39995.43  27664.23  69.17
942.1  40229.45  27615.31  68.64
943.1  40393.76  27487.21  68.05
944.1  40552.56  27395.05  67.55
945.2  40570.32  27168.40  66.97
946.2  40685.67  26991.85  66.34
947.2  40740.25  26799.04  65.78
948.2  40874.09  26614.84  65.11
949.2  40954.06  26386.48  64.43
950.2  41026.00  26156.42  63.76
951.2  41012.16  25913.44  63.18
952.2  41170.94  25708.83  62.44
953.2  41257.13  25562.66  61.96
954.2  41395.95  25336.05  61.20
955.2  41401.94  25148.41  60.74
956.2  41391.82  24865.36  60.07
957.2  41524.97  24745.75  59.59
958.2  41486.28  24602.58  59.30
959.2  41625.00  24536.55  58.95
960.1  41647.94  24457.74  58.72
961.1  41725.78  24358.89  58.38
962.1  41752.50  24302.19  58.21
963.1  41720.60  24238.20  58.10
964.1  41837.60  24255.85  57.98
965.1  41932.95  24221.11  57.76
966.1  41961.44  24203.73  57.68
967.0  42058.17  24242.28  57.64
968.0  42094.69  24217.44  57.53
969.0  42115.20  24246.20  57.57
970.0  42092.26  24235.61  57.58
971.0  42266.18  24296.41  57.48
971.9  42275.33  24270.92  57.41
972.9  42388.85  24308.84  57.35
973.9  42492.13  24348.46  57.30
974.9  42580.28  24400.85  57.31
975.8  42630.52  24418.41  57.28
976.8  42806.43  24507.96  57.25
977.8  42848.34  24583.37  57.37
978.8  42868.95  24686.25  57.59
979.7  43050.58  24801.14  57.61
980.7  43264.32  24906.15  57.57
981.7  43347.07  25014.06  57.71
982.6  43545.07  25301.27  58.10
983.6  44003.55  25708.94  58.42
984.6  44377.46  25821.45  58.19
985.5  44900.28  26426.76  58.86
986.5  45688.01  26954.35  59.00
987.5  46285.78  27649.26  59.74
988.4  47161.40  28453.33  60.33
989.4  47812.76  29628.10  61.97
990.4  48753.98  30215.79  61.98
991.3  50274.64  31584.97  62.82
992.3  50864.45  32735.84  64.36
993.2  51610.85  33584.46  65.07
994.2  53891.66  35168.74  65.26
995.2  55394.96  35810.88  64.65
996.1  55625.12  36472.15  65.57
997.1  56348.70  36697.23  65.13
998.0  54473.40  37000.80  67.92
999.0  55283.87  37578.58  67.97
1000.0  55127.21  37251.49  67.57
1000.9  55875.58  38430.86  68.78
1001.9  56355.47  37975.75  67.39
1002.8  54776.67  38050.97  69.47
1003.8  57170.04  38258.83  66.92
1004.8  54763.20  38182.12  69.72
961.5  49984.08  23138.99  46.29
965.5  48959.90  23115.21  47.21
969.5  47367.08  22792.05  48.12
973.4  45664.01  22418.79  49.10
977.4  44063.24  22277.73  50.56
981.4  43484.76  22459.79  51.65
985.3  43466.28  22744.95  52.33
989.3  43739.41  23128.73  52.88
993.3  44088.36  23525.77  53.36
997.2  44246.85  23828.23  53.85
1001.2  44240.69  24115.00  54.51
1005.2  44147.66  24428.90  55.33
1009.1  44170.72  24836.18  56.23
1013.1  44298.35  25331.94  57.18
1017.1  44409.64  25842.99  58.19
1021.0  44418.65  26296.83  59.20
1025.0  44431.92  26752.63  60.21
1029.0  44310.95  27129.15  61.22
1032.9  44196.36  27497.47  62.22
1036.9  44214.81  27933.96  63.18
1040.9  44317.48  28423.98  64.14
1044.8  44471.57  28940.23  65.08
1048.8  44586.22  29398.32  65.94
1052.7  44660.98  29785.24  66.69
1056.7  44664.90  30081.67  67.35
1060.7  44652.74  30294.77  67.85
1064.6  44643.90  30442.03  68.19
1068.6  44545.19  30459.84  68.38
1072.5  44448.63  30401.14  68.40
1076.5  44390.31  30309.11  68.28
1080.4  44363.13  30179.62  68.03
1084.4  44428.99  30052.73  67.64
1088.3  44526.89  29869.70  67.08
1092.3  44515.11  29554.10  66.39
1096.2  44485.25  29194.96  65.63
1100.2  44489.30  28844.54  64.83
1104.1  44387.15  28401.44  63.99
1108.1  44344.78  27981.42  63.10
1112.0  44255.25  27521.03  62.19
1116.0  44078.91  26964.65  61.17
1119.9  43920.46  26334.84  59.96
1123.9  43980.05  25680.14  58.39
1127.8  43933.44  24721.92  56.27
1131.8  43891.20  23489.92  53.52
1135.7  43904.71  22077.03  50.28
1139.6  43873.24  20558.59  46.86
1143.6  43814.30  19116.32  43.63
1147.5  43764.96  17899.42  40.90
1151.4  43600.54  16915.98  38.80
1155.4  43567.43  16264.98  37.33
1159.3  43548.37  15832.36  36.36
1163.2  43379.84  15473.59  35.67
1167.2  43333.14  15249.14  35.19
1171.1  43320.14  15085.15  34.82
1175.0  43247.45  14915.63  34.49
1179.0  43203.54  14764.48  34.17
1182.9  43281.26  14651.10  33.85
1186.8  43262.79  14512.71  33.55
1190.7  43059.97  14330.12  33.28
1194.7  42822.73  14162.98  33.07
1198.6  42602.18  14037.87  32.95
1202.5  42456.57  13958.77  32.88
1206.4  42335.53  13903.27  32.84
1210.3  42230.32  13883.43  32.88
1214.2  42126.94  13894.12  32.98
1218.2  41984.08  13911.67  33.14
1222.1  41854.50  13953.69  33.34
1226.0  41760.57  14013.74  33.56
1229.9  41673.90  14072.56  33.77
1233.8  41576.55  14118.72  33.96
1237.7  41528.30  14176.05  34.14
1241.6  41457.25  14223.59  34.31
1245.5  41309.15  14234.95  34.46
1249.4  41175.26  14247.22  34.60
1253.3  41058.30  14261.10  34.73
1257.2  40978.33  14270.61  34.82
1261.1  40873.57  14252.44  34.87
1265.0  40757.89  14205.92  34.85
1268.9  40587.74  14112.61  34.77
1272.8  40626.75  14061.90  34.61
1276.7  40780.33  14021.29  34.38
1280.6  40842.56  13911.34  34.06
1284.5  40748.73  13711.05  33.65
1288.4  40697.88  13496.41  33.16
1292.3  40562.50  13221.08  32.59
1296.2  40411.46  12899.64  31.92
1300.1  40239.63  12545.54  31.18
1303.9  40009.73  12137.54  30.34
1307.8  39785.54  11699.27  29.41
1311.7  39554.21  11235.44  28.41
1315.6  39326.35  10755.64  27.35
1319.5  39086.11  10252.96  26.23
1323.3  38870.69  9751.05  25.09
1327.2  38681.53  9261.75  23.94
1331.1  38474.56  8782.37  22.83
