/*** Spectra Vista SIG Data ***/
name= BT.sig
comm= Averaged Ref/Tar of files: BT1,BT2,BT3
data=
346.4  509.60  93.85  18.42
347.9  549.06  94.96  17.30
349.5  608.40  95.26  15.66
351.1  655.20  100.67  15.37
352.6  708.40  96.56  13.63
354.2  752.68  99.05  13.16
355.7  818.30  107.31  13.11
357.3  873.81  107.26  12.28
358.8  891.23  114.64  12.86
360.4  967.31  113.97  11.78
361.9  1009.93  115.62  11.45
363.5  1059.53  119.57  11.29
365.1  1102.67  116.04  10.52
366.6  1156.59  124.75  10.79
368.2  1218.77  117.74  9.66
369.7  1306.00  126.25  9.67
371.3  1379.56  125.99  9.13
372.8  1457.48  128.37  8.81
374.4  1528.58  132.17  8.65
375.9  1575.56  134.61  8.54
377.4  1632.76  142.24  8.71
379.0  1683.54  138.33  8.22
380.5  1741.87  140.34  8.06
382.1  1805.51  141.84  7.86
383.6  1862.60  138.35  7.43
385.2  1949.75  143.73  7.37
386.7  2036.04  144.40  7.09
388.3  2135.96  152.54  7.14
389.8  2212.47  162.50  7.34
391.3  2314.34  166.36  7.19
392.9  2392.65  171.84  7.18
394.4  2474.90  189.13  7.64
395.9  2552.82  183.80  7.20
397.5  2664.75  196.38  7.37
399.0  2774.82  200.23  7.22
400.6  2852.64  200.74  7.04
402.1  2910.24  201.24  6.92
403.6  2965.71  200.75  6.77
405.1  3036.77  202.61  6.67
406.7  3133.76  202.79  6.47
408.2  3234.33  210.87  6.52
409.7  3330.88  220.12  6.61
411.3  3437.91  225.22  6.55
412.8  3528.93  230.68  6.54
414.3  3634.54  234.96  6.46
415.8  3740.00  249.33  6.67
417.4  3868.37  254.69  6.58
418.9  3954.39  260.09  6.58
420.4  4037.85  263.21  6.52
421.9  4106.74  264.91  6.45
423.5  4196.00  267.12  6.37
425.0  4263.51  273.60  6.42
426.5  4364.50  272.05  6.23
428.0  4488.82  279.42  6.22
429.5  4615.58  280.19  6.07
431.1  4756.23  290.77  6.11
432.6  4917.76  296.07  6.02
434.1  5064.68  305.18  6.03
435.6  5199.35  314.24  6.04
437.1  5333.25  322.40  6.05
438.6  5454.84  332.21  6.09
440.1  5584.70  343.37  6.15
441.6  5717.14  351.64  6.15
443.1  5852.25  360.72  6.16
444.7  5982.11  368.80  6.17
446.2  6104.50  377.78  6.19
447.7  6213.60  385.47  6.20
449.2  6315.84  399.46  6.32
450.7  6414.72  406.02  6.33
452.2  6543.45  415.53  6.35
453.7  6682.65  420.68  6.30
455.2  6842.54  431.76  6.31
456.7  7029.44  444.93  6.33
458.2  7231.16  464.83  6.43
459.7  7428.75  480.90  6.47
461.2  7633.63  498.20  6.53
462.7  7815.14  514.33  6.58
464.2  8000.76  532.16  6.65
465.7  8191.53  542.47  6.62
467.2  8352.58  556.71  6.67
468.7  8552.00  568.53  6.65
470.2  8711.17  576.01  6.61
471.7  8854.00  589.95  6.66
473.2  9050.37  607.99  6.72
474.6  9252.88  623.10  6.73
476.1  9378.88  625.82  6.67
477.6  9464.51  624.05  6.59
479.1  9567.20  627.23  6.56
480.6  9658.16  626.74  6.49
482.1  9797.74  637.56  6.51
483.6  9963.22  650.59  6.53
485.1  10140.49  666.53  6.57
486.6  10356.19  697.66  6.74
488.0  10562.50  724.97  6.86
489.5  10784.97  758.83  7.04
491.0  10998.86  794.86  7.23
492.5  11224.98  841.10  7.49
494.0  11462.99  887.04  7.74
495.4  11663.85  939.62  8.06
496.9  11870.36  992.65  8.36
498.4  12074.30  1053.41  8.72
499.9  12278.41  1111.80  9.05
501.4  12476.75  1173.11  9.40
502.8  12664.51  1245.95  9.84
504.3  12846.60  1310.16  10.20
505.8  13033.73  1382.81  10.61
507.2  13172.68  1453.86  11.04
508.7  13289.99  1518.36  11.42
510.2  13412.81  1583.06  11.80
511.6  13494.72  1651.51  12.24
513.1  13630.43  1726.63  12.67
514.6  13795.53  1802.22  13.06
516.0  13946.28  1874.48  13.44
517.5  14135.83  1956.98  13.84
519.0  14365.19  2044.35  14.23
520.5  14579.60  2130.03  14.61
521.9  14828.55  2219.66  14.97
523.4  15093.49  2314.87  15.34
524.8  15349.14  2407.93  15.69
526.3  15633.70  2508.89  16.05
527.8  15915.89  2602.22  16.35
529.2  16178.21  2694.17  16.65
530.7  16455.24  2786.59  16.93
532.1  16698.15  2878.12  17.24
533.6  16994.07  2970.32  17.48
535.0  17295.55  3061.91  17.70
536.5  17581.25  3152.10  17.93
538.0  17895.84  3238.89  18.10
539.4  18160.64  3326.22  18.32
540.9  18488.86  3436.50  18.59
542.3  18738.28  3539.54  18.89
543.8  18940.29  3632.04  19.18
545.2  19020.35  3676.29  19.33
546.6  19057.19  3699.77  19.41
548.1  19121.11  3734.53  19.53
549.5  19166.91  3761.98  19.63
551.0  19217.70  3790.33  19.72
552.4  19311.21  3825.06  19.81
553.9  19371.38  3852.32  19.89
555.3  19461.20  3886.97  19.97
556.8  19596.88  3933.96  20.07
558.2  19743.75  3979.80  20.16
559.6  19902.71  4030.78  20.25
561.1  20117.50  4096.08  20.36
562.5  20332.52  4166.29  20.49
564.0  20611.34  4249.49  20.62
565.4  20865.50  4325.42  20.73
566.8  21177.73  4415.88  20.85
568.3  21463.05  4496.30  20.95
569.7  21776.78  4582.07  21.04
571.1  22080.65  4658.95  21.10
572.6  22373.82  4737.10  21.17
574.0  22675.95  4810.74  21.22
575.4  22958.44  4885.43  21.28
576.9  23231.09  4950.56  21.31
578.3  23477.03  5014.06  21.36
579.7  23721.74  5072.31  21.38
581.1  23920.49  5123.70  21.42
582.6  24132.47  5177.06  21.45
584.0  24305.80  5233.01  21.53
585.4  24549.94  5308.69  21.62
586.8  24845.17  5409.23  21.77
588.3  25201.80  5522.40  21.91
589.7  25517.70  5619.43  22.02
591.1  25735.55  5690.91  22.11
592.5  25883.00  5719.90  22.10
594.0  25998.42  5745.36  22.10
595.4  26057.54  5764.79  22.12
596.8  26115.38  5781.78  22.14
598.2  26174.55  5793.78  22.14
599.6  26202.06  5817.80  22.20
601.0  26298.70  5856.50  22.27
602.4  26372.18  5893.40  22.35
603.9  26501.77  5936.84  22.40
605.3  26625.41  5980.66  22.46
606.7  26749.80  6020.64  22.51
608.1  26941.18  6067.86  22.52
609.5  27151.69  6122.53  22.55
610.9  27387.74  6187.79  22.59
612.3  27589.20  6240.27  22.62
613.7  27871.80  6308.31  22.63
615.1  28061.64  6343.05  22.60
616.5  28235.16  6381.91  22.60
617.9  28534.12  6456.37  22.63
619.3  28808.15  6537.49  22.69
620.7  29149.14  6640.88  22.78
622.1  29527.66  6775.91  22.95
623.5  29951.83  6926.09  23.12
624.9  30436.35  7070.95  23.23
626.3  30757.12  7129.95  23.18
627.7  30461.43  7035.75  23.10
629.1  30188.34  6953.24  23.03
630.5  30083.03  6911.04  22.97
631.9  30076.12  6866.61  22.83
633.3  30078.24  6801.04  22.61
634.7  30183.54  6779.44  22.46
636.1  30268.81  6705.62  22.15
637.5  30374.19  6604.39  21.74
638.9  30520.15  6506.73  21.32
640.2  30643.60  6413.01  20.93
641.6  30733.56  6329.54  20.59
643.0  30777.50  6269.46  20.37
644.4  30869.16  6224.45  20.16
645.8  30855.38  6194.49  20.08
647.2  31023.20  6234.61  20.10
648.5  31185.15  6289.96  20.17
649.9  31117.13  6323.30  20.32
651.3  31099.80  6379.76  20.51
652.7  31059.00  6408.66  20.63
654.1  30961.56  6235.61  20.14
655.5  30829.51  6010.17  19.49
656.8  30685.81  5786.82  18.86
658.2  30861.69  5665.16  18.36
659.6  31181.89  5591.14  17.93
660.9  31452.29  5514.78  17.53
662.3  31767.46  5432.47  17.10
663.7  32102.70  5342.96  16.64
665.0  32334.98  5260.40  16.27
666.4  32575.38  5182.88  15.91
667.8  32873.84  5131.20  15.61
669.1  33084.01  5082.78  15.36
670.5  33327.47  5058.05  15.18
671.9  33513.12  5043.97  15.05
673.2  33742.50  5058.24  14.99
674.6  33950.66  5091.74  15.00
676.0  34219.05  5160.53  15.08
677.3  34494.18  5257.05  15.24
678.7  34767.13  5393.53  15.51
680.0  35103.31  5587.43  15.92
681.4  35420.13  5856.86  16.54
682.8  35763.00  6198.62  17.33
684.1  36073.44  6620.64  18.35
685.5  36318.59  7113.32  19.59
686.8  36607.26  7667.65  20.95
688.2  36844.31  8266.59  22.44
689.5  36898.97  8864.45  24.02
690.9  36950.15  9467.59  25.62
692.2  37008.15  10056.52  27.17
693.6  37024.93  10647.04  28.76
694.9  37005.38  11189.85  30.24
696.2  37027.13  11715.17  31.64
697.6  37047.86  12194.11  32.91
698.9  37049.76  12652.29  34.15
700.3  37075.62  13078.73  35.28
701.6  37124.24  13468.54  36.28
703.0  37178.40  13820.26  37.17
704.3  37172.20  14120.43  37.99
705.6  37157.22  14395.65  38.74
707.0  37168.46  14638.98  39.39
708.3  37076.04  14846.73  40.04
709.6  36967.81  15030.29  40.66
711.0  36867.73  15164.79  41.13
712.3  36770.31  15292.96  41.59
713.6  36755.88  15433.82  41.99
714.9  36684.64  15542.07  42.37
716.3  36701.44  15663.27  42.68
717.6  36734.04  15793.27  42.99
718.9  36680.73  15869.64  43.26
720.2  36496.25  15883.97  43.52
721.6  36394.28  15909.19  43.71
722.9  36240.12  15912.87  43.91
724.2  36067.30  15905.41  44.10
725.5  35963.70  15910.59  44.24
726.8  35833.96  15903.54  44.38
728.1  35810.80  15900.24  44.40
729.5  35779.10  15903.17  44.45
730.8  35779.13  15908.53  44.46
732.1  35704.25  15904.09  44.54
733.4  35690.92  15915.83  44.59
734.7  35685.89  15912.78  44.59
736.0  35729.66  15939.19  44.61
737.3  35717.44  15952.28  44.66
738.6  35830.21  16014.69  44.70
739.9  36014.88  16119.46  44.76
741.2  36161.58  16202.73  44.81
742.5  36363.94  16342.08  44.94
743.8  36737.66  16563.09  45.08
745.1  37309.08  16876.97  45.24
746.4  37926.98  17235.10  45.44
747.7  38536.99  17593.03  45.65
749.0  39118.92  17912.12  45.79
750.3  39493.02  18084.12  45.79
751.6  39440.80  18067.87  45.81
752.9  39084.79  17933.56  45.88
754.2  38731.25  17784.02  45.92
755.4  38386.91  17635.65  45.94
756.7  38244.09  17602.89  46.03
758.0  38261.36  17651.12  46.13
759.3  38489.95  17805.76  46.26
760.6  38786.44  18012.25  46.44
761.9  39062.28  18197.47  46.59
763.1  39197.21  18316.45  46.73
764.4  39371.54  18449.82  46.86
765.7  39490.75  18539.30  46.95
767.0  39577.16  18626.10  47.06
768.2  39644.64  18718.34  47.22
769.5  39697.68  18782.58  47.31
770.8  39836.32  18883.04  47.40
772.0  39856.44  18940.70  47.52
773.3  39898.95  19007.68  47.64
774.6  39978.84  19067.13  47.69
775.8  40054.79  19120.56  47.74
777.1  40085.96  19154.97  47.78
778.4  40059.57  19154.44  47.81
779.6  39999.54  19171.06  47.93
780.9  39948.00  19176.00  48.00
782.1  39837.20  19164.10  48.11
783.4  39802.88  19180.37  48.19
784.6  39851.08  19214.92  48.22
785.9  40095.40  19408.73  48.41
787.1  40531.58  19677.35  48.55
788.4  40834.19  19840.09  48.59
789.6  40796.10  19758.26  48.43
790.9  40479.11  19551.59  48.30
792.1  40128.24  19395.07  48.33
793.4  39739.41  19224.31  48.38
794.6  39507.48  19084.92  48.31
795.8  39314.07  18986.82  48.30
797.1  39097.95  18892.92  48.32
798.3  38940.83  18845.15  48.39
799.5  38821.14  18797.92  48.42
800.8  38733.05  18766.30  48.45
802.0  38591.76  18731.48  48.54
803.2  38469.72  18662.78  48.51
804.5  38377.94  18644.16  48.58
805.7  38264.87  18589.28  48.58
806.9  38181.95  18553.71  48.59
808.1  38074.65  18532.53  48.67
809.4  38033.33  18521.47  48.70
810.6  37951.55  18503.33  48.76
811.8  37942.61  18510.70  48.79
813.0  37965.80  18541.19  48.84
814.2  37975.49  18577.17  48.92
815.4  38039.93  18624.90  48.96
816.6  38032.65  18640.48  49.01
817.9  38050.16  18650.38  49.02
819.1  37997.24  18629.65  49.03
820.3  37865.18  18580.93  49.07
821.5  37787.61  18547.34  49.08
822.7  37714.41  18521.75  49.11
823.9  37704.87  18523.62  49.13
825.1  37688.07  18522.45  49.15
826.3  37716.38  18524.31  49.11
827.5  37726.06  18530.76  49.12
828.7  37779.60  18536.70  49.07
829.9  37796.29  18536.91  49.04
831.0  37849.02  18579.12  49.09
832.2  37913.75  18622.51  49.12
833.4  37950.44  18651.56  49.15
834.6  37978.13  18701.25  49.24
835.8  38031.53  18754.47  49.31
837.0  38073.26  18810.65  49.41
838.1  38178.69  18898.73  49.50
839.3  38239.24  18968.97  49.61
840.5  38296.24  19042.29  49.72
841.7  38381.58  19130.18  49.84
842.9  38485.06  19270.09  50.07
844.0  38543.94  19354.62  50.21
845.2  38626.85  19461.16  50.38
846.4  38724.98  19530.11  50.43
847.5  38888.12  19646.46  50.52
848.7  39002.30  19754.87  50.65
849.9  39141.74  19821.73  50.64
851.0  39173.78  19847.74  50.67
852.2  39245.07  19864.22  50.62
853.3  39202.67  19861.42  50.66
854.5  39188.19  19867.32  50.70
855.6  39170.88  19874.08  50.74
856.8  39193.80  19907.46  50.79
857.9  39192.81  19917.54  50.82
859.1  39326.60  19963.17  50.76
860.2  39300.24  19972.91  50.82
861.4  39344.78  20018.57  50.88
862.5  39384.29  20026.86  50.85
863.7  39467.66  20056.55  50.82
864.8  39454.45  20088.32  50.92
865.9  39398.65  20081.46  50.97
867.1  39448.45  20077.79  50.90
868.2  39441.53  20093.65  50.95
869.3  39465.67  20098.29  50.93
870.5  39438.89  20067.05  50.88
871.6  39473.54  20068.44  50.84
872.7  39541.37  20114.26  50.87
873.9  39548.50  20101.52  50.83
875.0  39546.05  20099.80  50.83
876.1  39583.15  20092.23  50.76
877.2  39616.79  20103.42  50.74
878.3  39601.98  20080.30  50.71
879.4  39662.11  20080.53  50.63
880.5  39702.60  20095.01  50.61
881.7  39698.10  20064.81  50.54
882.8  39775.46  20062.61  50.44
883.9  39785.32  20028.99  50.34
885.0  39766.55  19966.67  50.21
886.1  39735.85  19901.63  50.08
887.2  39664.66  19781.15  49.87
888.3  39567.00  19711.56  49.82
889.4  39535.02  19628.94  49.65
890.5  39459.91  19598.48  49.67
891.6  39428.33  19519.88  49.51
892.7  39429.01  19505.20  49.47
893.8  39492.50  19523.06  49.43
894.9  39505.51  19506.55  49.38
896.0  39527.49  19499.13  49.33
897.0  39487.40  19449.80  49.26
898.1  39490.45  19456.70  49.27
899.2  39536.22  19435.92  49.16
900.3  39503.73  19379.71  49.06
901.4  39454.09  19331.40  49.00
902.4  39461.49  19323.85  48.97
903.5  39418.10  19290.08  48.94
904.6  39431.18  19268.13  48.87
905.7  39454.64  19233.50  48.75
906.7  39397.52  19225.04  48.80
907.8  39514.80  19216.33  48.63
908.9  39443.33  19162.91  48.58
909.9  39411.21  19111.07  48.49
911.0  39357.50  19077.55  48.47
912.1  39280.99  19006.47  48.39
913.1  39233.48  18936.67  48.27
914.2  39173.92  18874.16  48.18
915.2  39170.79  18831.82  48.08
916.3  39094.50  18800.20  48.09
917.3  39076.47  18755.63  48.00
918.4  39031.30  18665.02  47.82
919.4  39022.48  18580.77  47.62
920.5  39026.74  18526.51  47.47
921.5  39018.63  18454.15  47.30
922.6  38959.72  18386.94  47.19
923.6  39026.05  18323.55  46.95
924.7  39022.50  18266.40  46.81
925.7  39030.84  18185.43  46.59
926.7  39009.32  18119.51  46.45
927.8  39032.57  18029.01  46.19
928.8  39142.62  17968.16  45.90
929.9  39330.10  17943.30  45.62
930.9  39447.46  17945.27  45.49
931.9  39602.61  17927.66  45.27
932.9  39864.58  17951.28  45.03
934.0  39909.81  17898.09  44.85
935.0  39942.68  17808.86  44.59
936.0  39929.50  17724.86  44.39
937.0  39883.94  17637.91  44.22
938.1  39848.52  17535.26  44.00
939.1  39753.89  17446.21  43.89
940.1  39867.76  17386.10  43.61
941.1  39995.43  17392.45  43.49
942.1  40229.45  17391.52  43.23
943.1  40393.76  17371.64  43.01
944.1  40552.56  17347.34  42.78
945.2  40570.32  17252.37  42.52
946.2  40685.67  17180.15  42.23
947.2  40740.25  17089.68  41.95
948.2  40874.09  17044.01  41.70
949.2  40954.06  16974.64  41.45
950.2  41026.00  16871.24  41.12
951.2  41012.16  16781.86  40.92
952.2  41170.94  16681.45  40.52
953.2  41257.13  16587.64  40.21
954.2  41395.95  16520.19  39.91
955.2  41401.94  16429.68  39.68
956.2  41391.82  16370.95  39.55
957.2  41524.97  16288.56  39.23
958.2  41486.28  16233.57  39.13
959.2  41625.00  16212.66  38.95
960.1  41647.94  16178.08  38.84
961.1  41725.78  16165.76  38.74
962.1  41752.50  16171.38  38.73
963.1  41720.60  16175.02  38.77
964.1  41837.60  16164.75  38.64
965.1  41932.95  16207.93  38.65
966.1  41961.44  16220.63  38.66
967.0  42058.17  16251.43  38.64
968.0  42094.69  16233.65  38.56
969.0  42115.20  16264.00  38.62
970.0  42092.26  16274.79  38.66
971.0  42266.18  16304.95  38.58
971.9  42275.33  16384.25  38.76
972.9  42388.85  16388.39  38.66
973.9  42492.13  16401.19  38.60
974.9  42580.28  16450.37  38.63
975.8  42630.52  16511.05  38.73
976.8  42806.43  16538.62  38.64
977.8  42848.34  16557.41  38.64
978.8  42868.95  16630.02  38.79
979.7  43050.58  16731.30  38.86
980.7  43264.32  16892.17  39.04
981.7  43347.07  16875.07  38.93
982.6  43545.07  17059.56  39.18
983.6  44003.55  17301.27  39.32
984.6  44377.46  17485.32  39.40
985.5  44900.28  17813.43  39.67
986.5  45688.01  17990.64  39.38
987.5  46285.78  18355.44  39.66
988.4  47161.40  18850.33  39.97
989.4  47812.76  19108.46  39.97
990.4  48753.98  19384.81  39.76
991.3  50274.64  19337.27  38.46
992.3  50864.45  20189.27  39.69
993.2  51610.85  20345.15  39.42
994.2  53891.66  20645.82  38.31
995.2  55394.96  20740.47  37.44
996.1  55625.12  21435.03  38.53
997.1  56348.70  20889.19  37.07
998.0  54473.40  21286.88  39.08
999.0  55283.87  20764.57  37.56
1000.0  55127.21  20600.82  37.37
1000.9  55875.58  20723.81  37.09
1001.9  56355.47  21082.62  37.41
1002.8  54776.67  20739.87  37.86
1003.8  57170.04  20715.05  36.23
1004.8  54763.20  21053.41  38.44
961.5  49984.08  16306.86  32.62
965.5  48959.90  16149.38  32.98
969.5  47367.08  15874.95  33.51
973.4  45664.01  15461.75  33.86
977.4  44063.24  15120.90  34.32
981.4  43484.76  15005.08  34.51
985.3  43466.28  15008.87  34.53
989.3  43739.41  15160.90  34.66
993.3  44088.36  15321.95  34.75
997.2  44246.85  15429.89  34.87
1001.2  44240.69  15550.73  35.15
1005.2  44147.66  15704.13  35.57
1009.1  44170.72  15931.46  36.07
1013.1  44298.35  16224.30  36.63
1017.1  44409.64  16508.61  37.17
1021.0  44418.65  16733.16  37.67
1025.0  44431.92  16958.92  38.17
1029.0  44310.95  17118.62  38.63
1032.9  44196.36  17274.53  39.09
1036.9  44214.81  17504.10  39.59
1040.9  44317.48  17772.65  40.10
1044.8  44471.57  18058.30  40.61
1048.8  44586.22  18325.04  41.10
1052.7  44660.98  18547.65  41.53
1056.7  44664.90  18699.29  41.87
1060.7  44652.74  18814.96  42.14
1064.6  44643.90  18910.14  42.36
1068.6  44545.19  18921.54  42.48
1072.5  44448.63  18904.62  42.53
1076.5  44390.31  18874.64  42.52
1080.4  44363.13  18822.42  42.43
1084.4  44428.99  18775.67  42.26
1088.3  44526.89  18705.72  42.01
1092.3  44515.11  18565.03  41.71
1096.2  44485.25  18405.49  41.37
1100.2  44489.30  18273.13  41.07
1104.1  44387.15  18079.11  40.73
1108.1  44344.78  17892.59  40.35
1112.0  44255.25  17670.06  39.93
1116.0  44078.91  17379.92  39.43
1119.9  43920.46  17050.91  38.82
1123.9  43980.05  16731.12  38.04
1127.8  43933.44  16267.52  37.03
1131.8  43891.20  15662.91  35.69
1135.7  43904.71  14969.04  34.09
1139.6  43873.24  14217.51  32.41
1143.6  43814.30  13503.25  30.82
1147.5  43764.96  12912.16  29.50
1151.4  43600.54  12447.93  28.55
1155.4  43567.43  12170.59  27.94
1159.3  43548.37  12003.65  27.56
1163.2  43379.84  11857.71  27.33
1167.2  43333.14  11781.12  27.19
1171.1  43320.14  11728.74  27.07
1175.0  43247.45  11668.57  26.98
1179.0  43203.54  11616.28  26.89
1182.9  43281.26  11588.10  26.77
1186.8  43262.79  11542.32  26.68
1190.7  43059.97  11450.17  26.59
1194.7  42822.73  11354.72  26.52
1198.6  42602.18  11297.06  26.52
1202.5  42456.57  11268.10  26.54
1206.4  42335.53  11262.89  26.60
1210.3  42230.32  11282.35  26.72
1214.2  42126.94  11313.11  26.85
1218.2  41984.08  11339.00  27.01
1222.1  41854.50  11370.80  27.17
1226.0  41760.57  11418.96  27.34
1229.9  41673.90  11469.20  27.52
1233.8  41576.55  11497.03  27.65
1237.7  41528.30  11529.30  27.76
1241.6  41457.25  11561.81  27.89
1245.5  41309.15  11573.45  28.02
1249.4  41175.26  11581.67  28.13
1253.3  41058.30  11589.00  28.23
1257.2  40978.33  11604.25  28.32
1261.1  40873.57  11602.76  28.39
1265.0  40757.89  11579.31  28.41
1268.9  40587.74  11518.08  28.38
1272.8  40626.75  11502.60  28.31
1276.7  40780.33  11515.86  28.24
1280.6  40842.56  11485.08  28.12
1284.5  40748.73  11382.07  27.93
1288.4  40697.88  11277.30  27.71
1292.3  40562.50  11130.17  27.44
1296.2  40411.46  10959.13  27.12
1300.1  40239.63  10760.20  26.74
1303.9  40009.73  10516.50  26.28
1307.8  39785.54  10257.77  25.78
1311.7  39554.21  9982.26  25.24
1315.6  39326.35  9700.19  24.67
1319.5  39086.11  9401.23  24.05
1323.3  38870.69  9096.11  23.40
1327.2  38681.53  8797.12  22.74
1331.1  38474.56  8490.20  22.07
1335.0  38203.08  8180.94  21.41
1338.8  38009.09  7899.82  20.78
1342.7  37876.27  7634.38  20.16
1346.5  37598.34  7339.11  19.52
1350.4  37400.07  7059.30  18.88
1354.3  37094.65  6767.91  18.24
1358.1  36731.71  6498.15  17.69
1362.0  36487.36  6279.97  17.21
1365.8  36370.47  6102.24  16.78
