/*** Spectra Vista SIG Data ***/
name= B.sig
comm= SIG file reprocesed for matching/overlap;Averaged Ref/Tar of files: GD3B1,GD3B2,GD3B3
data=
346.4  598.78  110.41  18.44
347.9  627.50  108.77  17.33
349.5  677.04  108.16  15.98
351.1  739.44  111.91  15.13
352.6  790.63  110.90  14.03
354.2  841.03  116.94  13.90
355.7  912.59  126.17  13.83
357.3  974.37  126.22  12.95
358.8  992.58  129.08  13.00
360.4  1062.29  131.79  12.41
361.9  1117.88  131.87  11.80
363.5  1149.55  133.42  11.61
365.1  1196.29  135.93  11.36
366.6  1260.16  133.50  10.59
368.2  1349.72  133.41  9.88
369.7  1403.95  135.82  9.67
371.3  1488.21  133.46  8.97
372.8  1577.00  138.55  8.79
374.4  1638.71  146.85  8.96
375.9  1688.10  143.88  8.52
377.4  1740.09  141.81  8.15
379.0  1788.57  139.61  7.81
380.5  1855.73  143.21  7.72
382.1  1905.98  137.11  7.19
383.6  1973.16  135.70  6.88
385.2  2065.25  140.43  6.80
386.7  2149.76  140.07  6.52
388.3  2271.83  143.85  6.33
389.8  2363.45  149.33  6.32
391.3  2453.59  157.45  6.42
392.9  2526.36  161.97  6.41
394.4  2602.50  166.18  6.39
395.9  2690.98  180.86  6.72
397.5  2829.48  192.08  6.79
399.0  2963.31  188.70  6.37
400.6  3033.76  180.74  5.96
402.1  3072.78  176.13  5.73
403.6  3116.75  172.94  5.55
405.1  3199.00  175.18  5.48
406.7  3304.00  178.01  5.39
408.2  3412.53  181.47  5.32
409.7  3521.28  190.55  5.41
411.3  3642.17  198.29  5.44
412.8  3732.75  200.98  5.38
414.3  3845.02  213.42  5.55
415.8  3965.00  220.00  5.55
417.4  4085.95  226.35  5.54
418.9  4192.21  234.11  5.58
420.4  4267.16  233.63  5.48
421.9  4346.32  236.51  5.44
423.5  4413.15  239.11  5.42
425.0  4492.75  242.43  5.40
426.5  4594.55  240.51  5.23
428.0  4712.54  244.66  5.19
429.5  4856.53  248.85  5.12
431.1  5025.20  255.68  5.09
432.6  5198.44  264.79  5.09
434.1  5370.75  273.09  5.08
435.6  5520.56  277.61  5.03
437.1  5670.60  287.30  5.07
438.6  5806.58  294.49  5.07
440.1  5943.54  300.55  5.06
441.6  6091.61  310.52  5.10
443.1  6230.93  320.22  5.14
444.7  6356.12  334.28  5.26
446.2  6474.98  343.25  5.30
447.7  6582.53  361.31  5.49
449.2  6691.68  373.25  5.58
450.7  6814.08  381.34  5.60
452.2  6930.56  388.28  5.60
453.7  7066.33  399.57  5.65
455.2  7233.85  414.76  5.73
456.7  7443.04  429.44  5.77
458.2  7673.27  448.29  5.84
459.7  7920.50  462.70  5.84
461.2  8156.07  482.90  5.92
462.7  8366.46  497.62  5.95
464.2  8568.06  515.82  6.02
465.7  8788.58  532.46  6.06
467.2  8970.50  544.39  6.07
468.7  9176.00  564.80  6.16
470.2  9305.26  583.47  6.27
471.7  9490.50  613.70  6.47
473.2  9788.42  628.21  6.42
474.6  10042.30  622.48  6.20
476.1  10127.24  619.32  6.12
477.6  10169.21  621.96  6.12
479.1  10224.56  634.45  6.21
480.6  10293.47  645.81  6.27
482.1  10426.95  657.30  6.30
483.6  10590.11  674.18  6.37
485.1  10796.39  693.14  6.42
486.6  11041.55  713.48  6.46
488.0  11290.50  738.40  6.54
489.5  11568.25  766.58  6.63
491.0  11840.59  796.36  6.73
492.5  12119.22  832.03  6.87
494.0  12409.65  875.71  7.06
495.4  12660.45  919.16  7.26
496.9  12912.44  964.59  7.47
498.4  13155.80  1020.47  7.76
499.9  13408.52  1074.93  8.02
501.4  13645.90  1144.02  8.38
502.8  13864.50  1209.55  8.72
504.3  14081.40  1283.04  9.11
505.8  14291.05  1364.05  9.54
507.2  14436.37  1444.01  10.00
508.7  14548.87  1527.81  10.50
510.2  14651.50  1610.67  10.99
511.6  14718.08  1698.51  11.54
513.1  14838.45  1792.21  12.08
514.6  14986.45  1885.16  12.58
516.0  15112.04  1984.76  13.13
517.5  15305.31  2095.15  13.69
519.0  15537.89  2218.66  14.28
520.5  15768.60  2344.76  14.87
521.9  16045.99  2477.45  15.44
523.4  16363.11  2613.25  15.97
524.8  16675.79  2747.33  16.47
526.3  17027.53  2888.83  16.97
527.8  17380.80  3026.31  17.41
529.2  17706.86  3158.57  17.84
530.7  18056.71  3288.32  18.21
532.1  18377.28  3415.66  18.59
533.6  18738.23  3543.46  18.91
535.0  19114.67  3672.44  19.21
536.5  19476.07  3798.64  19.50
538.0  19846.24  3928.77  19.80
539.4  20198.95  4058.45  20.09
540.9  20626.19  4183.83  20.28
542.3  20984.92  4278.93  20.39
543.8  21250.33  4359.41  20.51
545.2  21329.19  4416.74  20.71
546.6  21331.64  4468.97  20.95
548.1  21362.06  4524.15  21.18
549.5  21376.46  4570.90  21.38
551.0  21386.66  4614.81  21.58
552.4  21443.54  4657.34  21.72
553.9  21463.89  4693.38  21.87
555.3  21521.57  4726.10  21.96
556.8  21650.10  4766.73  22.02
558.2  21773.81  4803.53  22.06
559.6  21936.94  4849.54  22.11
561.1  22168.25  4902.52  22.12
562.5  22423.78  4961.34  22.13
564.0  22757.43  5034.81  22.12
565.4  23059.14  5091.96  22.08
566.8  23449.52  5161.74  22.01
568.3  23818.66  5222.80  21.93
569.7  24198.01  5280.91  21.82
571.1  24579.14  5329.05  21.68
572.6  24952.86  5371.70  21.53
574.0  25317.60  5406.72  21.36
575.4  25678.69  5442.30  21.19
576.9  26008.29  5472.16  21.04
578.3  26306.64  5498.35  20.90
579.7  26593.28  5520.48  20.76
581.1  26823.10  5536.74  20.64
582.6  27065.10  5555.41  20.53
584.0  27286.52  5569.95  20.41
585.4  27587.92  5590.17  20.26
586.8  27978.96  5625.81  20.11
588.3  28419.30  5664.98  19.93
589.7  28786.68  5697.43  19.79
591.1  29016.81  5717.99  19.71
592.5  29127.43  5724.13  19.65
594.0  29186.34  5724.64  19.61
595.4  29194.56  5717.41  19.58
596.8  29193.45  5708.85  19.56
598.2  29177.08  5695.31  19.52
599.6  29153.88  5675.11  19.47
601.0  29216.28  5667.27  19.40
602.4  29261.60  5650.34  19.31
603.9  29364.60  5639.50  19.21
605.3  29484.10  5627.73  19.09
606.7  29584.80  5609.52  18.96
608.1  29785.49  5604.96  18.82
609.5  30013.28  5599.88  18.66
610.9  30296.78  5604.52  18.50
612.3  30557.28  5593.09  18.30
613.7  30914.00  5602.02  18.12
615.1  31159.08  5594.18  17.95
616.5  31406.64  5584.54  17.78
617.9  31801.61  5596.79  17.60
619.3  32170.62  5611.29  17.44
620.7  32635.92  5641.09  17.28
622.1  33083.75  5621.91  16.99
623.5  33564.04  5598.54  16.68
624.9  34116.86  5607.07  16.43
626.3  34490.69  5623.16  16.30
627.7  34145.81  5572.21  16.32
629.1  33851.16  5559.93  16.42
630.5  33743.57  5597.23  16.59
631.9  33775.53  5651.57  16.73
633.3  33808.52  5700.65  16.86
634.7  33992.91  5738.19  16.88
636.1  34075.08  5760.24  16.90
637.5  34196.58  5760.61  16.85
638.9  34374.61  5748.24  16.72
640.2  34545.58  5741.06  16.62
641.6  34634.34  5699.93  16.46
643.0  34657.83  5609.08  16.18
644.4  34696.37  5499.88  15.85
645.8  34653.86  5343.07  15.42
647.2  34834.41  5197.21  14.92
648.5  34958.93  5017.30  14.35
649.9  34861.32  4767.83  13.68
651.3  34789.65  4501.94  12.94
652.7  34680.00  4239.46  12.22
654.1  34452.30  4136.08  12.01
655.5  34172.42  4075.16  11.93
656.8  33904.63  4019.36  11.85
658.2  34070.04  3981.58  11.69
659.6  34442.82  3941.50  11.44
660.9  34748.70  3865.21  11.12
662.3  35067.95  3787.11  10.80
663.7  35364.00  3699.08  10.46
665.0  35617.00  3605.78  10.12
666.4  35877.31  3514.63  9.80
667.8  36209.10  3439.25  9.50
669.1  36482.80  3376.16  9.25
670.5  36799.72  3332.54  9.06
671.9  36995.40  3287.94  8.89
673.2  37270.13  3270.91  8.78
674.6  37530.47  3264.98  8.70
676.0  37841.78  3289.47  8.69
677.3  38141.57  3321.55  8.71
678.7  38483.75  3389.80  8.81
680.0  38922.37  3501.82  9.00
681.4  39389.45  3654.74  9.28
682.8  39844.35  3859.92  9.69
684.1  40287.78  4129.63  10.25
685.5  40705.56  4468.01  10.98
686.8  41091.84  4882.28  11.88
688.2  41433.89  5379.37  12.98
689.5  41549.57  5918.06  14.24
690.9  41633.44  6513.55  15.64
692.2  41697.60  7156.66  17.16
693.6  41771.65  7834.82  18.76
694.9  41721.88  8491.24  20.35
696.2  41751.90  9167.69  21.96
697.6  41766.04  9837.28  23.55
698.9  41796.48  10487.84  25.09
700.3  41844.24  11113.61  26.56
701.6  41918.48  11723.09  27.97
703.0  41979.40  12313.01  29.33
704.3  41981.71  12829.79  30.56
705.6  41967.18  13320.95  31.74
707.0  41980.75  13776.82  32.82
708.3  41872.71  14146.86  33.79
709.6  41753.67  14488.14  34.70
711.0  41589.99  14788.71  35.56
712.3  41418.66  15054.91  36.35
713.6  41354.04  15347.19  37.11
714.9  41240.96  15595.00  37.81
716.3  41218.54  15851.28  38.46
717.6  41221.95  16104.30  39.07
718.9  41134.56  16298.52  39.62
720.2  40936.00  16424.16  40.12
721.6  40765.66  16555.83  40.61
722.9  40572.15  16670.14  41.09
724.2  40305.71  16701.01  41.44
725.5  40134.57  16765.44  41.77
726.8  39960.91  16809.19  42.06
728.1  39855.98  16889.44  42.38
729.5  39766.23  16939.50  42.60
730.8  39707.44  16987.10  42.78
732.1  39612.07  16999.29  42.91
733.4  39556.45  17014.79  43.01
734.7  39507.57  17038.08  43.13
736.0  39511.29  17071.64  43.21
737.3  39463.58  17064.14  43.24
738.6  39569.04  17170.63  43.39
739.9  39770.92  17308.11  43.52
741.2  39928.98  17411.21  43.61
742.5  40206.42  17586.42  43.74
743.8  40696.43  17842.44  43.84
745.1  41398.16  18188.05  43.93
746.4  42245.84  18582.14  43.99
747.7  43136.62  18994.82  44.03
749.0  43980.49  19430.96  44.18
750.3  44484.44  19701.73  44.29
751.6  44396.66  19703.76  44.38
752.9  43969.12  19531.46  44.42
754.2  43470.53  19321.25  44.45
755.4  42928.75  19074.69  44.43
756.7  42746.48  19018.54  44.49
758.0  42774.71  19059.88  44.56
759.3  43048.01  19198.84  44.60
760.6  43418.76  19400.71  44.68
761.9  43775.94  19585.80  44.74
763.1  43996.61  19688.49  44.75
764.4  44239.34  19838.42  44.84
765.7  44424.25  19942.00  44.89
767.0  44583.75  20033.41  44.93
768.2  44688.00  20091.90  44.96
769.5  44782.92  20150.04  44.99
770.8  44990.42  20259.79  45.03
772.0  45014.41  20292.05  45.08
773.3  45100.97  20354.96  45.13
774.6  45226.84  20438.69  45.19
775.8  45313.45  20517.38  45.28
777.1  45344.81  20575.07  45.37
778.4  45245.88  20549.83  45.42
779.6  45226.44  20574.86  45.49
780.9  45132.00  20557.33  45.55
782.1  44952.26  20471.64  45.54
783.4  44936.32  20506.58  45.63
784.6  44935.72  20540.58  45.71
785.9  45255.62  20710.46  45.76
787.1  45836.93  21031.23  45.88
788.4  46288.94  21326.88  46.07
789.6  46219.23  21360.66  46.22
790.9  45788.99  21164.73  46.22
792.1  45296.16  20937.80  46.22
793.4  44771.54  20726.61  46.29
794.6  44415.30  20625.40  46.44
795.8  44134.47  20534.29  46.53
797.1  43801.05  20402.06  46.58
798.3  43569.08  20328.00  46.66
799.5  43411.48  20303.01  46.77
800.8  43273.13  20254.06  46.81
802.0  43071.08  20196.56  46.89
803.2  42890.28  20124.24  46.92
804.5  42742.15  20097.39  47.02
805.7  42601.95  20049.75  47.06
806.9  42426.40  20002.91  47.15
808.1  42305.67  19971.26  47.21
809.4  42221.44  19955.32  47.26
810.6  42105.70  19915.65  47.30
811.8  42062.43  19915.98  47.35
813.0  42071.08  19913.00  47.33
814.2  42081.20  19911.61  47.32
815.4  42185.03  19974.30  47.35
816.6  42225.34  19995.41  47.35
817.9  42273.21  20024.53  47.37
819.1  42166.58  19953.48  47.32
820.3  42039.03  19855.47  47.23
821.5  41905.07  19765.68  47.17
822.7  41849.58  19706.21  47.09
823.9  41838.35  19660.67  46.99
825.1  41851.34  19627.19  46.90
826.3  41890.94  19596.95  46.78
827.5  41937.05  19562.74  46.65
828.7  42011.28  19534.43  46.50
829.9  42039.57  19503.24  46.39
831.0  42140.75  19491.99  46.25
832.2  42235.78  19485.38  46.13
833.4  42305.18  19482.81  46.05
834.6  42417.19  19487.50  45.94
835.8  42496.65  19484.01  45.85
837.0  42597.61  19509.25  45.80
838.1  42745.68  19578.32  45.80
839.3  42856.00  19605.32  45.75
840.5  42989.60  19642.43  45.69
841.7  43156.80  19720.92  45.70
842.9  43298.86  19767.87  45.65
844.0  43430.88  19794.51  45.58
845.2  43568.90  19842.51  45.54
846.4  43732.15  19876.82  45.45
847.5  43960.00  19973.96  45.44
848.7  44164.79  20068.71  45.44
849.9  44393.85  20178.36  45.45
851.0  44478.08  20200.19  45.42
852.2  44569.63  20261.60  45.46
853.3  44562.81  20252.04  45.45
854.5  44594.90  20248.93  45.41
855.6  44615.97  20244.72  45.38
856.8  44687.86  20278.59  45.38
857.9  44681.40  20274.86  45.38
859.1  44832.20  20352.53  45.40
860.2  44876.88  20345.53  45.34
861.4  44954.55  20365.81  45.30
862.5  45021.69  20375.56  45.26
863.7  45150.84  20443.74  45.28
864.8  45213.35  20435.01  45.20
865.9  45167.77  20401.74  45.17
867.1  45241.43  20416.51  45.13
868.2  45295.54  20412.54  45.07
869.3  45314.27  20431.28  45.09
870.5  45282.48  20386.53  45.02
871.6  45315.83  20390.67  45.00
872.7  45413.27  20421.73  44.97
873.9  45478.16  20412.58  44.88
875.0  45456.71  20376.99  44.83
876.1  45452.45  20350.01  44.77
877.2  45498.99  20351.97  44.73
878.3  45519.98  20300.13  44.60
879.4  45563.53  20303.49  44.56
880.5  45631.08  20297.04  44.48
881.7  45596.20  20255.21  44.42
882.8  45693.96  20271.67  44.36
883.9  45722.91  20284.71  44.36
885.0  45675.63  20243.50  44.32
886.1  45712.78  20233.28  44.26
887.2  45537.58  20145.13  44.24
888.3  45475.07  20119.22  44.24
889.4  45347.40  20023.64  44.16
890.5  45259.13  19951.48  44.08
891.6  45193.70  19896.42  44.02
892.7  45201.31  19876.75  43.97
893.8  45270.56  19852.54  43.85
894.9  45248.28  19810.88  43.78
896.0  45235.90  19775.68  43.72
897.0  45257.72  19750.17  43.64
898.1  45230.13  19714.27  43.59
899.2  45252.30  19691.21  43.51
900.3  45165.90  19591.30  43.38
901.4  45101.16  19516.18  43.27
902.4  45077.20  19506.94  43.27
903.5  45018.01  19443.47  43.19
904.6  45035.56  19413.25  43.11
905.7  45038.93  19380.62  43.03
906.7  44985.82  19312.40  42.93
907.8  45025.57  19311.89  42.89
908.9  44904.57  19218.63  42.80
909.9  44897.74  19157.93  42.67
911.0  44830.08  19097.16  42.60
912.1  44749.25  19014.33  42.49
913.1  44707.00  18920.86  42.32
914.2  44554.62  18823.86  42.25
915.2  44505.45  18731.92  42.09
916.3  44491.35  18675.58  41.98
917.3  44461.10  18615.54  41.87
918.4  44383.35  18461.52  41.60
919.4  44330.69  18378.55  41.46
920.5  44315.70  18296.50  41.29
921.5  44285.78  18244.16  41.20
922.6  44268.10  18103.26  40.89
923.6  44262.16  18015.62  40.70
924.7  44333.00  17922.40  40.43
925.7  44276.22  17806.06  40.22
926.7  44252.98  17731.91  40.07
927.8  44374.33  17643.34  39.76
928.8  44502.63  17607.09  39.56
929.9  44598.23  17515.21  39.27
930.9  44802.27  17503.79  39.07
931.9  45011.35  17454.06  38.78
932.9  45355.12  17489.08  38.56
934.0  45370.16  17374.71  38.30
935.0  45397.97  17227.59  37.95
936.0  45413.73  17083.65  37.62
937.0  45319.95  16944.82  37.39
938.1  45295.44  16831.30  37.16
939.1  45257.91  16678.69  36.85
940.1  45342.90  16571.91  36.55
941.1  45568.46  16483.71  36.17
942.1  45803.34  16441.71  35.90
943.1  45999.43  16357.04  35.56
944.1  46171.28  16315.31  35.34
945.2  46338.18  16205.56  34.97
946.2  46411.22  16063.19  34.61
947.2  46518.25  15939.43  34.26
948.2  46693.82  15858.31  33.96
949.2  46838.19  15757.30  33.64
950.2  46912.95  15617.98  33.29
951.2  46909.80  15489.04  33.02
952.2  47054.57  15364.29  32.65
953.2  47260.85  15270.56  32.31
954.2  47365.65  15173.49  32.03
955.2  47408.68  15067.54  31.78
956.2  47434.65  14930.69  31.48
957.2  47543.77  14841.07  31.22
958.2  47601.59  14761.55  31.01
959.2  47735.55  14678.64  30.75
960.1  47775.14  14648.55  30.66
961.1  47870.63  14643.19  30.59
962.1  47933.44  14556.38  30.37
963.1  48032.50  14523.46  30.24
964.1  48057.21  14521.14  30.22
965.1  48243.99  14514.76  30.09
966.1  48335.33  14510.44  30.02
967.0  48410.39  14498.17  29.95
968.0  48434.88  14487.50  29.91
969.0  48556.60  14472.11  29.80
970.0  48603.65  14491.33  29.82
971.0  48737.12  14457.84  29.66
971.9  48722.90  14428.72  29.61
972.9  48879.95  14395.16  29.45
973.9  48859.53  14395.12  29.46
974.9  49044.08  14331.68  29.22
975.8  49101.73  14285.86  29.09
976.8  49135.91  14250.81  29.00
977.8  49315.41  14263.66  28.92
978.8  49372.50  14187.50  28.74
979.7  49504.50  14183.95  28.65
981.4  50850.20  16254.97  31.97
985.3  50481.20  16250.14  32.19
989.3  50535.22  16415.00  32.48
993.3  50635.09  16679.73  32.94
997.2  50595.02  16947.99  33.50
1001.2  50545.04  17185.96  34.00
1005.2  50473.33  17418.71  34.51
1009.1  50535.74  17693.91  35.01
1013.1  50697.93  18012.98  35.53
1017.1  50843.90  18350.82  36.09
1021.0  50855.49  18665.70  36.70
1025.0  50816.26  18975.22  37.34
1029.0  50641.08  19219.64  37.95
1032.9  50496.42  19452.72  38.52
1036.9  50486.34  19727.23  39.07
1040.9  50614.23  20052.16  39.62
1044.8  50848.91  20408.81  40.14
1048.8  51055.33  20723.73  40.59
1052.7  51200.97  21000.95  41.02
1056.7  51265.76  21203.07  41.36
1060.7  51328.86  21354.23  41.60
1064.6  51364.29  21470.73  41.80
1068.6  51285.22  21495.89  41.91
1072.5  51205.93  21470.52  41.93
1076.5  51155.97  21427.53  41.89
1080.4  51154.95  21358.91  41.75
1084.4  51258.31  21288.00  41.53
1088.3  51367.47  21196.27  41.26
1092.3  51376.13  21008.13  40.89
1096.2  51342.58  20798.06  40.51
1100.2  51360.86  20603.64  40.12
1104.1  51244.60  20329.44  39.67
1108.1  51175.76  20065.83  39.21
1112.0  51059.75  19775.36  38.73
1116.0  50831.30  19428.50  38.22
1119.9  50653.13  19046.64  37.60
1123.9  50703.41  18663.12  36.81
1127.8  50649.60  18114.56  35.76
1131.8  50608.23  17414.24  34.41
1135.7  50617.81  16610.61  32.82
1139.6  50606.06  15742.76  31.11
1143.6  50555.26  14913.74  29.50
1147.5  50517.05  14198.63  28.11
1151.4  50365.69  13595.87  26.99
1155.4  50355.11  13203.37  26.22
1159.3  50376.78  12942.95  25.69
1163.2  50207.59  12719.54  25.33
1167.2  50161.80  12603.58  25.13
1171.1  50174.37  12525.77  24.96
1175.0  50101.08  12446.70  24.84
1179.0  50065.70  12378.74  24.72
1182.9  50165.17  12343.69  24.61
1186.8  50159.61  12292.76  24.51
1190.7  49934.95  12184.66  24.40
1194.7  49665.47  12087.21  24.34
1198.6  49438.62  12027.02  24.33
1202.5  49264.40  11994.59  24.35
1206.4  49122.14  11975.70  24.38
1210.3  49037.26  11987.49  24.45
1214.2  48930.30  12006.92  24.54
1218.2  48765.56  12023.12  24.65
1222.1  48630.48  12052.00  24.78
1226.0  48538.40  12100.73  24.93
1229.9  48450.48  12147.60  25.07
1233.8  48352.03  12186.90  25.20
1237.7  48317.50  12231.87  25.32
1241.6  48229.08  12260.03  25.42
1245.5  48061.09  12264.25  25.52
1249.4  47934.98  12265.53  25.59
1253.3  47803.87  12277.81  25.68
1257.2  47735.46  12294.87  25.76
1261.1  47624.11  12285.11  25.80
1265.0  47490.52  12258.17  25.81
1268.9  47304.07  12196.12  25.78
1272.8  47372.70  12180.90  25.71
1276.7  47590.81  12189.42  25.61
1280.6  47691.16  12146.36  25.47
1284.5  47615.01  12035.87  25.28
1288.4  47591.67  11925.50  25.06
1292.3  47467.75  11778.25  24.81
1296.2  47318.59  11602.35  24.52
1300.1  47148.87  11394.89  24.17
1303.9  46897.39  11152.58  23.78
1307.8  46639.44  10895.34  23.36
1311.7  46386.67  10612.74  22.88
1315.6  46123.85  10307.95  22.35
1319.5  45848.18  9988.28  21.79
1323.3  45606.50  9666.24  21.19
1327.2  45386.16  9353.34  20.61
1331.1  45132.53  9033.27  20.01
1335.0  44824.46  8704.07  19.42
1338.8  44600.56  8422.84  18.89
1342.7  44421.07  8170.21  18.39
1346.5  44042.02  7902.02  17.94
1350.4  43720.62  7668.90  17.54
1354.3  43279.60  7426.77  17.16
1358.1  42799.92  7176.91  16.77
1362.0  42533.76  6946.70  16.33
1365.8  42447.40  6729.93  15.85
1369.7  42569.31  6528.33  15.34
1373.5  42515.11  6275.43  14.76
1377.4  42239.08  5961.22  14.11
1381.2  42024.35  5594.81  13.31
1385.1  42007.68  5192.66  12.36
1389.0  41913.21  4775.98  11.39
1392.8  41686.58  4385.98  10.52
1396.6  41522.45  4038.72  9.73
1400.5  41297.26  3723.67  9.02
1404.3  41119.22  3469.14  8.44
1408.2  41089.83  3268.26  7.95
1412.0  41038.18  3112.61  7.58
1415.8  41063.56  3000.46  7.31
1419.6  41020.11  2899.57  7.07
1423.5  40984.07  2826.00  6.90
1427.3  40938.38  2773.65  6.78
1431.1  40915.35  2734.98  6.68
1434.9  40812.08  2695.45  6.60
1438.8  40755.58  2674.60  6.56
1442.6  40720.04  2663.43  6.54
1446.4  40579.53  2645.37  6.52
1450.2  40476.97  2638.87  6.52
1454.0  40349.16  2628.84  6.52
1457.8  40313.93  2624.56  6.51
1461.6  40291.52  2634.49  6.54
1465.4  40157.17  2645.88  6.59
1469.2  39958.10  2657.96  6.65
1473.0  39808.79  2679.27  6.73
1476.8  39739.71  2717.65  6.84
1480.7  39668.27  2762.15  6.96
1484.4  39532.92  2809.72  7.11
