/*** Spectra Vista SIG Data ***/
name= RCS.sig
comm= Averaged Ref/Tar of files: RCS1,RCS2,RCS3
data=
346.4  681.59  540.39  79.28
347.9  715.35  572.07  79.97
349.5  770.64  614.64  79.76
351.1  842.40  663.52  78.77
352.6  898.15  711.57  79.23
354.2  935.94  761.40  81.35
355.7  1013.62  827.28  81.62
357.3  1085.33  878.43  80.94
358.8  1118.40  902.88  80.73
360.4  1202.99  967.32  80.41
361.9  1232.81  1007.60  81.73
363.5  1270.74  1057.22  83.20
365.1  1317.65  1085.33  82.37
366.6  1387.91  1150.84  82.92
368.2  1463.87  1221.01  83.41
369.7  1534.55  1283.15  83.62
371.3  1633.08  1353.22  82.86
372.8  1713.12  1428.71  83.40
374.4  1792.24  1498.54  83.61
375.9  1860.22  1550.18  83.33
377.4  1899.46  1601.31  84.30
379.0  1960.42  1653.84  84.36
380.5  2031.15  1699.80  83.69
382.1  2086.23  1753.30  84.04
383.6  2157.44  1813.46  84.06
385.2  2246.75  1892.00  84.21
386.7  2352.82  1978.28  84.08
388.3  2459.34  2072.55  84.27
389.8  2572.07  2155.74  83.81
391.3  2656.89  2246.57  84.56
392.9  2742.58  2323.42  84.72
394.4  2813.19  2387.85  84.88
395.9  2929.62  2466.99  84.21
397.5  3078.19  2587.23  84.05
399.0  3204.33  2703.75  84.38
400.6  3294.12  2764.91  83.93
402.1  3341.10  2804.46  83.94
403.6  3394.86  2837.84  83.59
405.1  3468.63  2898.14  83.55
406.7  3608.64  2998.61  83.10
408.2  3731.06  3096.23  82.99
409.7  3852.80  3186.03  82.69
411.3  3974.94  3284.91  82.64
412.8  4078.77  3370.14  82.63
414.3  4209.70  3455.06  82.07
415.8  4355.00  3557.50  81.69
417.4  4488.22  3659.22  81.53
418.9  4602.07  3738.50  81.24
420.4  4700.86  3801.06  80.86
421.9  4779.50  3862.32  80.81
423.5  4868.48  3908.01  80.27
425.0  4946.75  3965.34  80.16
426.5  5061.10  4042.72  79.88
428.0  5190.77  4144.00  79.83
429.5  5352.25  4262.71  79.64
431.1  5547.65  4405.35  79.41
432.6  5755.97  4551.20  79.07
434.1  5948.25  4695.08  78.93
435.6  6124.28  4829.76  78.86
437.1  6302.40  4964.05  78.76
438.6  6474.68  5085.42  78.54
440.1  6639.39  5206.05  78.41
441.6  6824.52  5328.66  78.08
443.1  7000.43  5458.05  77.97
444.7  7161.68  5579.33  77.91
446.2  7304.35  5680.00  77.76
447.7  7436.90  5775.63  77.66
449.2  7603.20  5882.40  77.37
450.7  7741.76  5968.21  77.09
452.2  7897.34  6075.78  76.93
453.7  8068.35  6200.89  76.85
455.2  8271.36  6349.52  76.77
456.7  8521.92  6538.40  76.72
458.2  8798.66  6750.01  76.72
459.7  9084.25  6970.83  76.74
461.2  9358.03  7194.73  76.88
462.7  9610.51  7398.07  76.98
464.2  9858.21  7607.31  77.17
465.7  10114.09  7812.28  77.24
467.2  10348.80  8008.64  77.39
468.7  10580.00  8227.33  77.76
470.2  10734.52  8376.81  78.04
471.7  10963.00  8581.67  78.28
473.2  11373.85  8900.44  78.25
474.6  11705.47  9165.43  78.30
476.1  11816.88  9278.53  78.52
477.6  11856.58  9341.84  78.79
479.1  11942.66  9438.35  79.03
480.6  12045.55  9556.20  79.33
482.1  12235.28  9717.25  79.42
483.6  12450.16  9921.43  79.69
485.1  12713.77  10157.82  79.90
486.6  13023.49  10444.05  80.19
488.0  13336.38  10737.46  80.51
489.5  13672.59  11060.06  80.89
491.0  14011.01  11384.79  81.26
492.5  14354.82  11735.82  81.76
494.0  14711.73  12090.28  82.18
495.4  15019.95  12422.85  82.71
496.9  15327.26  12772.72  83.33
498.4  15628.55  13119.69  83.95
499.9  15928.10  13473.21  84.59
501.4  16209.31  13829.71  85.32
502.8  16473.62  14174.09  86.04
504.3  16714.80  14513.40  86.83
505.8  16959.20  14855.14  87.59
507.2  17126.33  15132.87  88.36
508.7  17247.52  15376.31  89.15
510.2  17339.71  15590.86  89.91
511.6  17411.75  15782.48  90.64
513.1  17544.34  16028.39  91.36
514.6  17698.58  16290.52  92.04
516.0  17825.00  16526.75  92.72
517.5  18047.36  16832.32  93.27
519.0  18295.51  17163.18  93.81
520.5  18536.92  17482.40  94.31
521.9  18853.35  17863.28  94.75
523.4  19205.40  18270.20  95.13
524.8  19558.90  18673.94  95.48
526.3  19954.88  19111.38  95.77
527.8  20358.54  19545.95  96.01
529.2  20720.63  19944.48  96.25
530.7  21131.94  20373.23  96.41
532.1  21496.13  20746.89  96.51
533.6  21912.96  21180.16  96.66
535.0  22337.12  21615.83  96.77
536.5  22744.89  22035.67  96.88
538.0  23176.64  22478.67  96.99
539.4  23579.50  22876.42  97.02
540.9  24073.87  23363.43  97.05
542.3  24503.44  23780.33  97.05
543.8  24803.15  24076.84  97.07
545.2  24902.77  24180.44  97.10
546.6  24905.23  24203.62  97.18
548.1  24938.84  24246.26  97.22
549.5  24960.43  24278.84  97.27
551.0  24980.05  24298.32  97.27
552.4  25028.39  24365.00  97.35
553.9  25067.16  24405.46  97.36
555.3  25131.60  24469.97  97.37
556.8  25277.69  24611.66  97.37
558.2  25413.75  24751.13  97.39
559.6  25588.96  24933.47  97.44
561.1  25845.63  25185.88  97.45
562.5  26127.16  25462.66  97.46
564.0  26493.28  25819.65  97.46
565.4  26820.56  26150.15  97.50
566.8  27250.49  26567.54  97.49
568.3  27646.12  26959.47  97.52
569.7  28068.80  27378.30  97.54
571.1  28477.04  27782.12  97.56
572.6  28887.84  28186.38  97.57
574.0  29285.85  28579.10  97.59
575.4  29666.25  28953.00  97.60
576.9  30024.23  29300.04  97.59
578.3  30349.96  29617.09  97.59
579.7  30653.88  29918.68  97.60
581.1  30910.34  30162.46  97.58
582.6  31174.82  30414.36  97.56
584.0  31418.40  30642.48  97.53
585.4  31752.38  30951.86  97.48
586.8  32199.46  31367.77  97.42
588.3  32687.46  31827.12  97.37
589.7  33118.02  32209.32  97.26
591.1  33373.37  32454.99  97.25
592.5  33516.68  32580.75  97.21
594.0  33586.38  32636.96  97.17
595.4  33595.98  32646.95  97.18
596.8  33610.01  32646.19  97.13
598.2  33616.52  32636.78  97.09
599.6  33610.59  32614.92  97.04
601.0  33699.08  32679.25  96.97
602.4  33774.48  32744.84  96.95
603.9  33926.33  32874.26  96.90
605.3  34072.12  33023.87  96.92
606.7  34210.80  33154.80  96.91
608.1  34483.94  33415.50  96.90
609.5  34774.03  33703.14  96.92
610.9  35139.01  34049.87  96.90
612.3  35462.58  34378.60  96.94
613.7  35909.44  34812.28  96.94
615.1  36223.20  35116.74  96.95
616.5  36545.85  35430.91  96.95
617.9  37036.98  35913.63  96.97
619.3  37494.41  36363.42  96.98
620.7  38051.02  36915.13  97.01
622.1  38641.49  37470.53  96.97
623.5  39289.89  38066.07  96.89
624.9  40013.40  38733.28  96.80
626.3  40479.43  39179.01  96.79
627.7  40087.97  38800.24  96.79
629.1  39710.48  38461.61  96.86
630.5  39552.45  38342.44  96.94
631.9  39557.81  38375.10  97.01
633.3  39572.53  38414.11  97.07
634.7  39751.95  38604.28  97.11
636.1  39830.37  38686.16  97.13
637.5  39936.85  38806.76  97.17
638.9  40099.55  38983.47  97.22
640.2  40240.49  39135.97  97.26
641.6  40287.78  39198.12  97.30
643.0  40238.03  39172.66  97.35
644.4  40224.03  39163.84  97.36
645.8  40114.18  39065.24  97.39
647.2  40273.35  39226.89  97.40
648.5  40378.39  39337.38  97.42
649.9  40207.64  39174.20  97.43
651.3  40068.15  39049.85  97.46
652.7  39902.40  38877.30  97.43
654.1  39689.64  38644.96  97.37
655.5  39416.14  38350.46  97.30
656.8  39148.45  38043.23  97.18
658.2  39361.62  38233.57  97.13
659.6  39806.72  38644.43  97.08
660.9  40175.43  38983.57  97.03
662.3  40554.61  39331.34  96.98
663.7  40918.50  39670.40  96.95
665.0  41229.34  39958.32  96.92
666.4  41547.80  40244.79  96.86
667.8  41946.66  40630.09  96.86
669.1  42284.47  40941.59  96.82
670.5  42673.95  41308.88  96.80
671.9  42913.44  41538.48  96.80
673.2  43266.07  41860.47  96.75
674.6  43566.00  42158.33  96.77
676.0  43930.78  42516.65  96.78
677.3  44282.02  42864.40  96.80
678.7  44697.25  43267.13  96.80
680.0  45213.86  43777.02  96.82
681.4  45766.98  44316.00  96.83
682.8  46293.98  44835.70  96.85
684.1  46823.40  45351.54  96.86
685.5  47322.04  45810.07  96.80
686.8  47792.88  46273.42  96.82
688.2  48223.18  46684.14  96.81
689.5  48388.99  46837.95  96.79
690.9  48523.61  46954.04  96.77
692.2  48646.35  47050.05  96.72
693.6  48753.62  47138.99  96.69
694.9  48726.02  47099.08  96.66
696.2  48776.96  47138.21  96.64
697.6  48830.24  47177.40  96.62
698.9  48898.08  47219.92  96.57
700.3  48978.48  47280.36  96.53
701.6  49085.51  47358.61  96.48
703.0  49193.20  47446.22  96.45
704.3  49249.85  47465.28  96.38
705.6  49257.45  47434.65  96.30
707.0  49309.07  47446.70  96.22
708.3  49207.12  47318.04  96.16
709.6  49114.54  47176.11  96.05
711.0  48939.26  46974.06  95.98
712.3  48769.81  46753.39  95.87
713.6  48704.04  46642.12  95.77
714.9  48602.78  46469.78  95.61
716.3  48588.70  46395.88  95.49
717.6  48617.52  46343.97  95.32
718.9  48536.49  46185.85  95.16
720.2  48307.49  45897.48  95.01
721.6  48153.95  45662.28  94.83
722.9  47936.01  45383.88  94.68
724.2  47639.85  45012.46  94.48
725.5  47424.98  44725.78  94.31
726.8  47209.28  44433.43  94.12
728.1  47104.31  44230.34  93.90
729.5  46996.71  44015.12  93.66
730.8  46923.49  43832.85  93.41
732.1  46798.99  43599.38  93.16
733.4  46744.13  43430.05  92.91
734.7  46680.56  43274.01  92.70
736.0  46677.48  43195.21  92.54
737.3  46612.39  43051.74  92.36
738.6  46734.01  43112.77  92.25
739.9  46954.51  43278.35  92.17
741.2  47125.26  43408.82  92.11
742.5  47447.37  43691.45  92.08
743.8  47996.03  44172.01  92.03
745.1  48809.24  44920.49  92.03
746.4  49781.55  45792.87  91.99
747.7  50790.38  46692.50  91.93
749.0  51767.36  47560.50  91.87
750.3  52328.61  48067.75  91.86
751.6  52272.25  47970.65  91.77
752.9  51775.93  47492.56  91.73
754.2  51201.15  46960.97  91.72
755.4  50592.92  46385.76  91.68
756.7  50384.83  46195.33  91.68
758.0  50414.79  46212.29  91.66
759.3  50743.55  46511.36  91.66
760.6  51174.20  46908.40  91.66
761.9  51603.98  47295.59  91.65
763.1  51849.31  47530.90  91.67
764.4  52152.71  47807.99  91.67
765.7  52377.00  48003.58  91.65
767.0  52549.38  48171.37  91.67
768.2  52701.60  48315.68  91.68
769.5  52810.63  48415.72  91.68
770.8  53045.44  48644.72  91.70
772.0  53100.56  48689.39  91.69
773.3  53188.98  48790.24  91.73
774.6  53354.08  48940.96  91.73
775.8  53461.20  49068.39  91.78
777.1  53508.78  49111.82  91.78
778.4  53425.65  49047.64  91.81
779.6  53400.84  49045.09  91.84
780.9  53292.00  48966.67  91.88
782.1  53076.89  48793.98  91.93
783.4  53094.08  48824.53  91.96
784.6  53123.36  48877.60  92.01
785.9  53493.24  49247.32  92.06
787.1  54140.96  49882.24  92.13
788.4  54650.90  50354.12  92.14
789.6  54606.79  50315.36  92.14
790.9  54195.46  49934.33  92.14
792.1  53621.44  49427.89  92.18
793.4  53038.60  48901.07  92.20
794.6  52638.96  48545.97  92.22
795.8  52305.98  48285.89  92.31
797.1  51958.28  47979.55  92.34
798.3  51700.28  47743.58  92.35
799.5  51533.89  47630.97  92.43
800.8  51368.49  47472.90  92.42
802.0  51198.04  47324.40  92.43
803.2  50985.60  47143.60  92.46
804.5  50860.04  47018.92  92.45
805.7  50719.84  46890.79  92.45
806.9  50562.35  46747.78  92.46
808.1  50423.43  46625.78  92.47
809.4  50370.79  46554.75  92.42
810.6  50259.30  46444.88  92.41
811.8  50219.77  46386.49  92.37
813.0  50240.18  46403.67  92.36
814.2  50269.35  46401.04  92.30
815.4  50395.26  46485.40  92.24
816.6  50435.43  46487.51  92.17
817.9  50520.02  46510.49  92.06
819.1  50453.18  46405.32  91.98
820.3  50292.84  46212.89  91.89
821.5  50186.52  46055.10  91.77
822.7  50129.14  45946.33  91.66
823.9  50164.82  45900.12  91.50
825.1  50200.66  45827.86  91.29
826.3  50240.05  45777.80  91.12
827.5  50318.09  45717.54  90.86
828.7  50415.36  45674.48  90.60
829.9  50507.84  45636.60  90.36
831.0  50650.69  45646.73  90.12
832.2  50792.03  45664.14  89.90
833.4  50916.96  45686.00  89.73
834.6  51046.88  45703.13  89.53
835.8  51200.10  45764.78  89.38
837.0  51345.98  45845.87  89.29
838.1  51556.89  45976.62  89.18
839.3  51695.05  46045.85  89.07
840.5  51868.53  46153.02  88.98
841.7  52057.89  46298.66  88.94
842.9  52261.97  46421.83  88.83
844.0  52431.51  46530.75  88.75
845.2  52643.35  46697.12  88.70
846.4  52843.91  46808.80  88.58
847.5  53153.14  47028.04  88.48
848.7  53388.72  47205.73  88.42
849.9  53666.68  47377.88  88.28
851.0  53788.26  47441.73  88.20
852.2  53905.28  47516.59  88.15
853.3  53940.07  47492.46  88.05
854.5  54007.25  47486.86  87.93
855.6  54016.74  47466.15  87.87
856.8  54107.98  47505.79  87.80
857.9  54162.24  47494.17  87.69
859.1  54349.20  47632.53  87.64
860.2  54391.08  47614.96  87.54
861.4  54467.60  47635.27  87.46
862.5  54552.96  47660.66  87.37
863.7  54662.15  47740.07  87.34
864.8  54702.90  47727.05  87.25
865.9  54674.99  47641.85  87.14
867.1  54786.85  47660.88  86.99
868.2  54827.42  47668.66  86.94
869.3  54894.96  47658.88  86.82
870.5  54823.91  47559.36  86.75
871.6  54852.19  47526.95  86.65
872.7  54976.29  47586.68  86.56
873.9  55056.83  47579.33  86.42
875.0  55062.49  47517.99  86.30
876.1  55095.98  47496.18  86.21
877.2  55156.47  47470.18  86.06
878.3  55149.66  47423.61  85.99
879.4  55272.06  47444.08  85.84
880.5  55376.64  47447.16  85.68
881.7  55347.50  47334.08  85.52
882.8  55420.30  47353.79  85.44
883.9  55513.79  47337.21  85.27
885.0  55479.74  47231.28  85.13
886.1  55501.34  47153.33  84.96
887.2  55343.74  46944.45  84.82
888.3  55258.91  46787.98  84.67
889.4  55154.68  46622.05  84.53
890.5  55047.57  46474.81  84.43
891.6  55001.16  46357.61  84.28
892.7  55026.90  46265.90  84.08
893.8  55055.10  46227.51  83.97
894.9  55090.42  46161.28  83.79
896.0  55028.29  46092.46  83.76
897.0  55118.03  46036.32  83.52
898.1  55158.46  45988.61  83.38
899.2  55180.72  45934.12  83.24
900.3  55062.96  45754.34  83.09
901.4  54962.33  45588.25  82.94
902.4  55001.76  45585.42  82.88
903.5  54972.37  45420.50  82.62
904.6  54964.96  45337.90  82.49
905.7  55017.73  45278.81  82.30
906.7  55035.12  45191.36  82.11
907.8  55039.86  45138.56  82.01
908.9  54991.33  44982.31  81.80
909.9  54943.35  44868.45  81.66
911.0  54872.96  44702.59  81.47
912.1  54790.79  44516.49  81.25
913.1  54735.20  44344.73  81.02
914.2  54541.69  44117.81  80.89
915.2  54595.35  44009.28  80.61
916.3  54551.40  43871.60  80.42
917.3  54573.71  43733.72  80.14
918.4  54446.43  43504.91  79.90
919.4  54414.23  43323.01  79.62
920.5  54428.77  43169.07  79.31
921.5  54475.89  43006.37  78.95
922.6  54410.90  42800.57  78.66
923.6  54447.03  42651.59  78.34
924.7  54459.50  42451.75  77.95
925.7  54495.48  42259.88  77.55
926.7  54553.81  42095.55  77.16
927.8  54636.73  41958.35  76.80
928.8  54842.19  41865.52  76.34
929.9  55044.05  41768.21  75.88
930.9  55283.54  41723.35  75.47
931.9  55540.52  41663.08  75.01
932.9  55963.96  41733.53  74.57
934.0  56021.37  41554.16  74.18
935.0  56120.05  41348.72  73.68
936.0  56003.16  41070.57  73.34
937.0  55977.87  40780.03  72.85
938.1  55974.27  40501.52  72.36
939.1  55917.43  40218.57  71.92
940.1  56074.66  40053.91  71.43
941.1  56382.36  40015.93  70.97
942.1  56663.67  39937.85  70.48
943.1  56919.06  39776.55  69.88
944.1  57215.88  39682.53  69.36
945.2  57301.02  39480.98  68.90
946.2  57440.15  39212.51  68.27
947.2  57566.00  38965.84  67.69
948.2  57830.17  38780.07  67.06
949.2  57915.81  38523.06  66.52
950.2  58040.55  38201.95  65.82
951.2  58176.72  37918.16  65.18
952.2  58298.86  37655.28  64.59
953.2  58588.08  37446.88  63.92
954.2  58732.20  37245.30  63.42
955.2  58792.29  36921.21  62.80
956.2  58815.84  36664.01  62.34
957.2  58926.82  36469.38  61.89
958.2  59082.07  36327.68  61.49
959.2  59207.40  36191.55  61.13
960.1  59348.74  36048.36  60.74
961.1  59359.58  35958.09  60.58
962.1  59493.75  35904.07  60.35
963.1  59598.25  35834.35  60.13
964.1  59786.68  35854.57  59.97
965.1  59964.50  35852.09  59.79
966.1  60040.47  35764.61  59.57
967.0  60244.94  35840.82  59.49
968.0  60221.39  35823.79  59.49
969.0  60305.20  35809.33  59.38
970.0  60412.43  35831.03  59.31
971.0  60471.39  35840.81  59.27
971.9  60602.51  35890.73  59.22
972.9  60755.71  35946.93  59.17
973.9  60849.75  36004.91  59.17
974.9  61002.11  36053.64  59.10
975.8  61135.91  36140.39  59.11
976.8  61284.89  36146.99  58.98
977.8  61421.26  36285.70  59.08
978.8  61596.45  36388.10  59.07
979.7  61642.27  36584.44  59.35
980.7  61834.58  36689.84  59.34
981.7  62172.83  36926.89  59.39
982.6  62605.04  37287.77  59.56
983.6  63245.05  37750.51  59.69
984.6  63939.77  38299.46  59.90
985.5  64840.68  38895.24  59.99
986.5  65844.49  39601.55  60.14
987.5  66724.84  40694.82  60.99
988.4  68288.00  41541.87  60.83
989.4  69534.49  42819.26  61.58
990.4  71817.24  44472.19  61.92
991.3  73281.68  46014.08  62.79
992.3  74535.98  46756.17  62.73
993.2  77416.28  48618.92  62.80
994.2  79445.93  50602.50  63.69
995.2  80574.48  51291.63  63.66
996.1  80992.61  52670.67  65.03
997.1  82080.18  52765.83  64.29
998.0  80511.00  52988.80  65.82
999.0  81661.15  53356.77  65.34
1000.0  81378.26  53627.15  65.90
1000.9  81845.92  55219.76  67.47
1001.9  81897.87  54058.00  66.01
1002.8  82374.07  54219.14  65.82
1003.8  81609.14  54551.56  66.84
1004.8  81688.44  54458.96  66.67
961.5  75985.22  37318.87  49.11
965.5  74100.90  37046.89  50.00
969.5  70587.41  36368.46  51.52
973.4  67194.39  35626.65  53.02
977.4  64603.44  35104.89  54.34
981.4  63251.87  35111.77  55.51
985.3  62876.14  35437.37  56.36
989.3  63064.38  35998.10  57.08
993.3  63365.29  36592.01  57.75
997.2  63438.27  37037.12  58.38
1001.2  63409.53  37437.96  59.04
1005.2  63357.85  37841.80  59.73
1009.1  63463.11  38387.58  60.49
1013.1  63704.79  39070.52  61.33
1017.1  63952.31  39769.43  62.19
1021.0  64068.74  40385.35  63.03
1025.0  64097.72  40980.38  63.93
1029.0  63930.84  41446.41  64.83
1032.9  63818.42  41908.01  65.67
1036.9  63891.54  42475.05  66.48
1040.9  64103.12  43143.66  67.30
1044.8  64414.80  43865.63  68.10
1048.8  64707.93  44506.00  68.78
1052.7  64944.71  45050.03  69.37
1056.7  65091.36  45448.91  69.82
1060.7  65194.70  45734.97  70.15
1064.6  65271.31  45931.90  70.37
1068.6  65221.52  45974.20  70.49
1072.5  65189.88  45930.85  70.46
1076.5  65194.55  45824.38  70.29
1080.4  65234.73  45665.26  70.00
1084.4  65410.41  45523.16  69.60
1088.3  65596.33  45320.61  69.09
1092.3  65667.83  44930.42  68.42
1096.2  65724.30  44490.80  67.69
1100.2  65797.69  44070.08  66.98
1104.1  65695.91  43490.56  66.20
1108.1  65682.50  42958.37  65.40
1112.0  65613.16  42364.89  64.57
1116.0  65416.30  41636.47  63.65
1119.9  65241.08  40813.67  62.56
1123.9  65374.05  39971.79  61.14
1127.8  65376.00  38720.00  59.23
1131.8  65389.13  37072.57  56.70
1135.7  65456.72  35143.77  53.69
1139.6  65507.30  33044.88  50.44
1143.6  65510.21  31023.20  47.36
1147.5  65490.53  29305.29  44.75
1151.4  65354.19  27895.59  42.68
1155.4  65378.22  26962.27  41.24
1159.3  65419.59  26347.67  40.27
1163.2  65259.60  25831.16  39.58
1167.2  65230.03  25518.68  39.12
1171.1  65282.82  25294.62  38.75
1175.0  65242.12  25061.56  38.41
1179.0  65227.68  24838.48  38.08
1182.9  65401.75  24683.90  37.74
1186.8  65409.09  24493.74  37.45
1190.7  65132.77  24213.84  37.18
1194.7  64829.75  23949.57  36.94
1198.6  64578.94  23754.89  36.78
1202.5  64368.53  23627.66  36.71
1206.4  64183.16  23541.13  36.68
1210.3  64065.63  23510.96  36.70
1214.2  63955.16  23532.22  36.79
1218.2  63763.20  23580.21  36.98
1222.1  63606.64  23673.89  37.22
1226.0  63491.71  23796.05  37.48
1229.9  63386.34  23915.72  37.73
1233.8  63280.45  24013.73  37.95
1237.7  63219.60  24125.32  38.16
1241.6  63128.59  24209.06  38.35
1245.5  62954.81  24234.46  38.50
1249.4  62815.45  24259.50  38.62
1253.3  62673.73  24282.46  38.74
1257.2  62580.14  24303.29  38.84
1261.1  62461.63  24283.48  38.88
1265.0  62312.66  24213.13  38.86
1268.9  62118.33  24058.48  38.73
1272.8  62245.78  24006.50  38.57
1276.7  62509.72  23972.81  38.35
1280.6  62688.92  23812.56  37.99
1284.5  62639.57  23526.44  37.56
1288.4  62629.78  23212.08  37.06
1292.3  62498.05  22796.58  36.48
1296.2  62328.71  22323.55  35.82
1300.1  62137.97  21793.56  35.07
1303.9  61850.33  21171.31  34.23
1307.8  61552.48  20505.08  33.31
1311.7  61248.81  19791.78  32.31
1315.6  60933.83  19039.15  31.25
1319.5  60626.67  18247.65  30.10
1323.3  60349.73  17462.55  28.94
