/*** Spectra Vista SIG Data ***/
name= RS.sig
comm= Averaged Ref/Tar of files: RD2S7,RD2S8,RD2S9
data=
346.4  509.60  128.78  25.27
347.9  549.06  131.57  23.96
349.5  608.40  136.14  22.38
351.1  655.20  131.66  20.10
352.6  708.40  139.04  19.63
354.2  752.68  143.34  19.04
355.7  818.30  151.43  18.51
357.3  873.81  161.24  18.45
358.8  891.23  155.76  17.48
360.4  967.31  162.51  16.80
361.9  1009.93  161.24  15.97
363.5  1059.53  160.32  15.13
365.1  1102.67  168.75  15.30
366.6  1156.59  171.01  14.79
368.2  1218.77  165.08  13.54
369.7  1306.00  164.56  12.60
371.3  1379.56  172.64  12.51
372.8  1457.48  169.21  11.61
374.4  1528.58  177.56  11.62
375.9  1575.56  176.09  11.18
377.4  1632.76  176.61  10.82
379.0  1683.54  179.81  10.68
380.5  1741.87  176.45  10.13
382.1  1805.51  175.53  9.72
383.6  1862.60  174.35  9.36
385.2  1949.75  172.88  8.87
386.7  2036.04  178.60  8.77
388.3  2135.96  179.36  8.40
389.8  2212.47  187.12  8.46
391.3  2314.34  190.59  8.24
392.9  2392.65  198.39  8.29
394.4  2474.90  201.59  8.15
395.9  2552.82  212.06  8.31
397.5  2664.75  219.75  8.25
399.0  2774.82  215.37  7.76
400.6  2852.64  208.66  7.31
402.1  2910.24  201.07  6.91
403.6  2965.71  196.12  6.61
405.1  3036.77  195.37  6.43
406.7  3133.76  202.50  6.46
408.2  3234.33  203.59  6.29
409.7  3330.88  206.90  6.21
411.3  3437.91  213.89  6.22
412.8  3528.93  223.34  6.33
414.3  3634.54  227.94  6.27
415.8  3740.00  235.83  6.31
417.4  3868.37  238.41  6.16
418.9  3954.39  241.95  6.12
420.4  4037.85  242.27  6.00
421.9  4106.74  246.36  6.00
423.5  4196.00  245.95  5.86
425.0  4263.51  245.65  5.76
426.5  4364.50  244.96  5.61
428.0  4488.82  246.64  5.49
429.5  4615.58  248.85  5.39
431.1  4756.23  253.68  5.33
432.6  4917.76  260.82  5.30
434.1  5064.68  264.43  5.22
435.6  5199.35  274.38  5.28
437.1  5333.25  279.96  5.25
438.6  5454.84  284.27  5.21
440.1  5584.70  292.55  5.24
441.6  5717.14  300.04  5.25
443.1  5852.25  301.05  5.14
444.7  5982.11  315.92  5.28
446.2  6104.50  317.57  5.20
447.7  6213.60  328.66  5.29
449.2  6315.84  330.26  5.23
450.7  6414.72  327.53  5.11
452.2  6543.45  328.28  5.02
453.7  6682.65  329.97  4.94
455.2  6842.54  336.62  4.92
456.7  7029.44  344.49  4.90
458.2  7231.16  352.18  4.87
459.7  7428.75  364.00  4.90
461.2  7633.63  371.95  4.87
462.7  7815.14  381.21  4.88
464.2  8000.76  391.38  4.89
465.7  8191.53  406.04  4.96
467.2  8352.58  408.81  4.89
468.7  8552.00  420.27  4.91
470.2  8711.17  438.83  5.04
471.7  8854.00  456.32  5.15
473.2  9050.37  458.73  5.07
474.6  9252.88  455.85  4.93
476.1  9378.88  455.31  4.85
477.6  9464.51  457.99  4.84
479.1  9567.20  461.40  4.82
480.6  9658.16  462.94  4.79
482.1  9797.74  467.18  4.77
483.6  9963.22  471.00  4.73
485.1  10140.49  477.53  4.71
486.6  10356.19  486.67  4.70
488.0  10562.50  497.25  4.71
489.5  10784.97  511.26  4.74
491.0  10998.86  520.09  4.73
492.5  11224.98  533.57  4.75
494.0  11462.99  546.09  4.76
495.4  11663.85  558.36  4.79
496.9  11870.36  571.59  4.82
498.4  12074.30  583.86  4.84
499.9  12278.41  590.71  4.81
501.4  12476.75  603.19  4.83
502.8  12664.51  614.41  4.85
504.3  12846.60  624.06  4.86
505.8  13033.73  634.76  4.87
507.2  13172.68  641.45  4.87
508.7  13289.99  644.98  4.85
510.2  13412.81  648.65  4.84
511.6  13494.72  652.46  4.83
513.1  13630.43  657.24  4.82
514.6  13795.53  658.34  4.77
516.0  13946.28  660.30  4.73
517.5  14135.83  662.65  4.69
519.0  14365.19  671.88  4.68
520.5  14579.60  680.82  4.67
521.9  14828.55  688.16  4.64
523.4  15093.49  702.12  4.65
524.8  15349.14  714.31  4.65
526.3  15633.70  730.94  4.68
527.8  15915.89  746.30  4.69
529.2  16178.21  760.03  4.70
530.7  16455.24  775.09  4.71
532.1  16698.15  785.92  4.71
533.6  16994.07  802.24  4.72
535.0  17295.55  820.74  4.75
536.5  17581.25  839.22  4.77
538.0  17895.84  858.85  4.80
539.4  18160.64  877.77  4.83
540.9  18488.86  896.88  4.85
542.3  18738.28  910.46  4.86
543.8  18940.29  917.63  4.84
545.2  19020.35  916.77  4.82
546.6  19057.19  920.83  4.83
548.1  19121.11  921.49  4.82
549.5  19166.91  921.27  4.81
551.0  19217.70  923.44  4.81
552.4  19311.21  921.03  4.77
553.9  19371.38  924.66  4.77
555.3  19461.20  927.69  4.77
556.8  19596.88  928.26  4.74
558.2  19743.75  932.29  4.72
559.6  19902.71  939.45  4.72
561.1  20117.50  950.52  4.72
562.5  20332.52  962.30  4.73
564.0  20611.34  975.78  4.73
565.4  20865.50  992.25  4.76
566.8  21177.73  1011.19  4.77
568.3  21463.05  1030.04  4.80
569.7  21776.78  1051.89  4.83
571.1  22080.65  1074.05  4.86
572.6  22373.82  1098.03  4.91
574.0  22675.95  1121.56  4.95
575.4  22958.44  1144.35  4.98
576.9  23231.09  1170.07  5.04
578.3  23477.03  1197.39  5.10
579.7  23721.74  1224.30  5.16
581.1  23920.49  1252.58  5.24
582.6  24132.47  1286.92  5.33
584.0  24305.80  1317.65  5.42
585.4  24549.94  1360.29  5.54
586.8  24845.17  1399.41  5.63
588.3  25201.80  1444.17  5.73
589.7  25517.70  1485.27  5.82
591.1  25735.55  1521.56  5.91
592.5  25883.00  1559.39  6.02
594.0  25998.42  1596.11  6.14
595.4  26057.54  1633.47  6.27
596.8  26115.38  1675.75  6.42
598.2  26174.55  1719.58  6.57
599.6  26202.06  1769.78  6.75
601.0  26298.70  1827.66  6.95
602.4  26372.18  1888.43  7.16
603.9  26501.77  1957.13  7.38
605.3  26625.41  2030.93  7.63
606.7  26749.80  2105.58  7.87
608.1  26941.18  2199.09  8.16
609.5  27151.69  2296.52  8.46
610.9  27387.74  2405.81  8.78
612.3  27589.20  2525.03  9.15
613.7  27871.80  2653.68  9.52
615.1  28061.64  2781.59  9.91
616.5  28235.16  2916.66  10.33
617.9  28534.12  3075.73  10.78
619.3  28808.15  3245.74  11.27
620.7  29149.14  3436.94  11.79
622.1  29527.66  3582.86  12.13
623.5  29951.83  3713.21  12.40
624.9  30436.35  3849.81  12.65
626.3  30757.12  3985.88  12.96
627.7  30461.43  4059.10  13.33
629.1  30188.34  4164.96  13.80
630.5  30083.03  4318.25  14.35
631.9  30076.12  4515.43  15.01
633.3  30078.24  4730.77  15.73
634.7  30183.54  4947.18  16.39
636.1  30268.81  5131.18  16.95
637.5  30374.19  5286.83  17.41
638.9  30520.15  5455.11  17.87
640.2  30643.60  5605.76  18.29
641.6  30733.56  5727.70  18.64
643.0  30777.50  5828.07  18.94
644.4  30869.16  5918.12  19.17
645.8  30855.38  5986.72  19.40
647.2  31023.20  6093.82  19.64
648.5  31185.15  6197.08  19.87
649.9  31117.13  6285.62  20.20
651.3  31099.80  6395.23  20.56
652.7  31059.00  6485.50  20.88
654.1  30961.56  6411.66  20.71
655.5  30829.51  6279.21  20.37
656.8  30685.81  6155.48  20.06
658.2  30861.69  6107.37  19.79
659.6  31181.89  6089.66  19.53
660.9  31452.29  6063.75  19.28
662.3  31767.46  6023.59  18.96
663.7  32102.70  5968.06  18.59
665.0  32334.98  5893.96  18.23
666.4  32575.38  5830.18  17.90
667.8  32873.84  5792.29  17.62
669.1  33084.01  5746.38  17.37
670.5  33327.47  5730.30  17.19
671.9  33513.12  5718.32  17.06
673.2  33742.50  5746.72  17.03
674.6  33950.66  5794.48  17.07
676.0  34219.05  5887.56  17.21
677.3  34494.18  6014.81  17.44
678.7  34767.13  6197.21  17.82
680.0  35103.31  6464.55  18.42
681.4  35420.13  6830.57  19.28
682.8  35763.00  7303.58  20.42
684.1  36073.44  7917.00  21.95
685.5  36318.59  8653.09  23.83
686.8  36607.26  9517.49  26.00
688.2  36844.31  10475.72  28.43
689.5  36898.97  11464.74  31.07
690.9  36950.15  12505.04  33.84
692.2  37008.15  13549.51  36.61
693.6  37024.93  14612.28  39.47
694.9  37005.38  15600.73  42.16
696.2  37027.13  16564.92  44.74
697.6  37047.86  17467.79  47.15
698.9  37049.76  18334.98  49.49
700.3  37075.62  19145.77  51.64
701.6  37124.24  19909.77  53.63
703.0  37178.40  20625.64  55.48
704.3  37172.20  21239.94  57.14
705.6  37157.22  21811.01  58.70
707.0  37168.46  22341.18  60.11
708.3  37076.04  22769.01  61.41
709.6  36967.81  23157.45  62.64
711.0  36867.73  23484.14  63.70
712.3  36770.31  23777.94  64.67
713.6  36755.88  24094.38  65.55
714.9  36684.64  24369.53  66.43
716.3  36701.44  24664.50  67.20
717.6  36734.04  24961.23  67.95
718.9  36680.73  25166.15  68.61
720.2  36496.25  25271.56  69.24
721.6  36394.28  25384.10  69.75
722.9  36240.12  25485.00  70.32
724.2  36067.30  25519.95  70.76
725.5  35963.70  25595.31  71.17
726.8  35833.96  25629.50  71.52
728.1  35810.80  25697.65  71.76
729.5  35779.10  25754.87  71.98
730.8  35779.13  25823.11  72.17
732.1  35704.25  25867.31  72.45
733.4  35690.92  25919.59  72.62
734.7  35685.89  25954.97  72.73
736.0  35729.66  26041.85  72.89
737.3  35717.44  26101.55  73.08
738.6  35830.21  26248.59  73.26
739.9  36014.88  26476.16  73.51
741.2  36161.58  26649.81  73.70
742.5  36363.94  26925.66  74.04
743.8  36737.66  27338.18  74.41
745.1  37309.08  27904.70  74.79
746.4  37926.98  28512.01  75.18
747.7  38536.99  29108.64  75.53
749.0  39118.92  29676.59  75.86
750.3  39493.02  29987.99  75.93
751.6  39440.80  29947.03  75.93
752.9  39084.79  29718.53  76.04
754.2  38731.25  29467.30  76.08
755.4  38386.91  29204.60  76.08
756.7  38244.09  29183.83  76.31
758.0  38261.36  29295.01  76.57
759.3  38489.95  29576.07  76.84
760.6  38786.44  29924.87  77.15
761.9  39062.28  30254.61  77.45
763.1  39197.21  30449.46  77.68
764.4  39371.54  30690.63  77.95
765.7  39490.75  30869.80  78.17
767.0  39577.16  31014.55  78.36
768.2  39644.64  31145.18  78.56
769.5  39697.68  31260.56  78.75
770.8  39836.32  31436.64  78.91
772.0  39856.44  31509.85  79.06
773.3  39898.95  31622.02  79.26
774.6  39978.84  31752.07  79.42
775.8  40054.79  31844.12  79.50
777.1  40085.96  31890.56  79.56
778.4  40059.57  31880.19  79.58
779.6  39999.54  31904.13  79.76
780.9  39948.00  31900.67  79.86
782.1  39837.20  31829.71  79.90
783.4  39802.88  31872.26  80.08
784.6  39851.08  31933.22  80.13
785.9  40095.40  32231.97  80.39
787.1  40531.58  32705.98  80.69
788.4  40834.19  32989.78  80.79
789.6  40796.10  32856.38  80.54
790.9  40479.11  32486.18  80.25
792.1  40128.24  32166.36  80.16
793.4  39739.41  31859.74  80.17
794.6  39507.48  31642.57  80.09
795.8  39314.07  31476.90  80.07
797.1  39097.95  31299.10  80.05
798.3  38940.83  31190.17  80.10
799.5  38821.14  31137.56  80.21
800.8  38733.05  31056.01  80.18
802.0  38591.76  30966.22  80.24
803.2  38469.72  30854.27  80.20
804.5  38377.94  30784.51  80.21
805.7  38264.87  30699.18  80.23
806.9  38181.95  30609.51  80.17
808.1  38074.65  30564.52  80.28
809.4  38033.33  30533.90  80.28
810.6  37951.55  30495.77  80.35
811.8  37942.61  30505.89  80.40
813.0  37965.80  30542.35  80.45
814.2  37975.49  30580.40  80.53
815.4  38039.93  30655.59  80.59
816.6  38032.65  30675.16  80.65
817.9  38050.16  30685.76  80.65
819.1  37997.24  30606.97  80.55
820.3  37865.18  30489.80  80.52
821.5  37787.61  30389.67  80.42
822.7  37714.41  30347.32  80.47
823.9  37704.87  30328.99  80.44
825.1  37688.07  30301.84  80.40
826.3  37716.38  30281.06  80.29
827.5  37726.06  30283.62  80.27
828.7  37779.60  30270.04  80.12
829.9  37796.29  30248.76  80.03
831.0  37849.02  30284.88  80.01
832.2  37913.75  30317.13  79.96
833.4  37950.44  30353.99  79.98
834.6  37978.13  30396.10  80.04
835.8  38031.53  30444.59  80.05
837.0  38073.26  30525.51  80.18
838.1  38178.69  30649.10  80.28
839.3  38239.24  30704.54  80.30
840.5  38296.24  30802.15  80.43
841.7  38381.58  30937.20  80.60
842.9  38485.06  31078.87  80.76
844.0  38543.94  31186.72  80.91
845.2  38626.85  31319.45  81.08
846.4  38724.98  31415.33  81.12
847.5  38888.12  31582.14  81.21
848.7  39002.30  31717.53  81.32
849.9  39141.74  31826.57  81.31
851.0  39173.78  31848.88  81.30
852.2  39245.07  31872.17  81.21
853.3  39202.67  31847.05  81.24
854.5  39188.19  31839.53  81.25
855.6  39170.88  31850.66  81.31
856.8  39193.80  31894.11  81.38
857.9  39192.81  31891.66  81.37
859.1  39326.60  31968.65  81.29
860.2  39300.24  31995.76  81.41
861.4  39344.78  32018.76  81.38
862.5  39384.29  32046.21  81.37
863.7  39467.66  32102.46  81.34
864.8  39454.45  32116.18  81.40
865.9  39398.65  32077.39  81.42
867.1  39448.45  32099.25  81.37
868.2  39441.53  32092.28  81.37
869.3  39465.67  32096.25  81.33
870.5  39438.89  32031.52  81.22
871.6  39473.54  32047.67  81.19
872.7  39541.37  32097.74  81.18
873.9  39548.50  32109.88  81.19
875.0  39546.05  32079.70  81.12
876.1  39583.15  32053.70  80.98
877.2  39616.79  32048.50  80.90
878.3  39601.98  31993.02  80.79
879.4  39662.11  31999.73  80.68
880.5  39702.60  31998.89  80.60
881.7  39698.10  31937.34  80.45
882.8  39775.46  31936.09  80.29
883.9  39785.32  31895.69  80.17
885.0  39766.55  31784.84  79.93
886.1  39735.85  31698.01  79.77
887.2  39664.66  31520.70  79.47
888.3  39567.00  31390.12  79.33
889.4  39535.02  31259.42  79.07
890.5  39459.91  31155.50  78.95
891.6  39428.33  31062.36  78.78
892.7  39429.01  31007.29  78.64
893.8  39492.50  31001.35  78.50
894.9  39505.51  30977.18  78.41
896.0  39527.49  30914.72  78.21
897.0  39487.40  30868.56  78.17
898.1  39490.45  30839.46  78.09
899.2  39536.22  30794.91  77.89
900.3  39503.73  30683.39  77.67
901.4  39454.09  30610.47  77.59
902.4  39461.49  30583.05  77.50
903.5  39418.10  30482.95  77.33
904.6  39431.18  30449.84  77.22
905.7  39454.64  30398.24  77.05
906.7  39397.52  30341.90  77.01
907.8  39514.80  30318.57  76.73
908.9  39443.33  30220.45  76.62
909.9  39411.21  30129.35  76.45
911.0  39357.50  30030.57  76.30
912.1  39280.99  29909.87  76.14
913.1  39233.48  29801.70  75.96
914.2  39173.92  29676.94  75.76
915.2  39170.79  29601.70  75.57
916.3  39094.50  29524.89  75.52
917.3  39076.47  29434.31  75.32
918.4  39031.30  29289.08  75.04
919.4  39022.48  29173.61  74.76
920.5  39026.74  29081.70  74.52
921.5  39018.63  28980.10  74.27
922.6  38959.72  28832.72  74.01
923.6  39026.05  28758.52  73.69
924.7  39022.50  28674.19  73.48
925.7  39030.84  28552.03  73.15
926.7  39009.32  28431.32  72.88
927.8  39032.57  28298.05  72.50
928.8  39142.62  28270.42  72.22
929.9  39330.10  28210.12  71.73
930.9  39447.46  28203.51  71.50
931.9  39602.61  28207.73  71.23
932.9  39864.58  28257.28  70.88
934.0  39909.81  28150.91  70.54
935.0  39942.68  28024.28  70.16
936.0  39929.50  27855.89  69.76
937.0  39883.94  27693.94  69.44
938.1  39848.52  27532.43  69.09
939.1  39753.89  27375.06  68.86
940.1  39867.76  27256.73  68.37
941.1  39995.43  27286.13  68.22
942.1  40229.45  27257.46  67.75
943.1  40393.76  27209.88  67.36
944.1  40552.56  27204.75  67.09
945.2  40570.32  27058.60  66.70
946.2  40685.67  26933.81  66.20
947.2  40740.25  26820.00  65.83
948.2  40874.09  26713.19  65.35
949.2  40954.06  26561.90  64.86
950.2  41026.00  26419.62  64.40
951.2  41012.16  26247.12  64.00
952.2  41170.94  26092.36  63.38
953.2  41257.13  26000.86  63.02
954.2  41395.95  25909.91  62.59
955.2  41401.94  25741.92  62.18
956.2  41391.82  25556.79  61.74
957.2  41524.97  25445.02  61.28
958.2  41486.28  25375.02  61.16
959.2  41625.00  25314.11  60.81
960.1  41647.94  25233.85  60.59
961.1  41725.78  25216.50  60.43
962.1  41752.50  25166.09  60.27
963.1  41720.60  25128.44  60.23
964.1  41837.60  25184.12  60.19
965.1  41932.95  25201.97  60.10
966.1  41961.44  25188.67  60.03
967.0  42058.17  25170.17  59.85
968.0  42094.69  25180.59  59.82
969.0  42115.20  25141.43  59.70
970.0  42092.26  25201.65  59.87
971.0  42266.18  25191.10  59.60
971.9  42275.33  25250.26  59.73
972.9  42388.85  25234.15  59.53
973.9  42492.13  25189.74  59.28
974.9  42580.28  25227.67  59.25
975.8  42630.52  25182.85  59.07
976.8  42806.43  25207.90  58.89
977.8  42848.34  25260.87  58.95
978.8  42868.95  25245.81  58.89
979.7  43050.58  25351.19  58.89
980.7  43264.32  25427.07  58.77
981.7  43347.07  25482.16  58.79
982.6  43545.07  25741.36  59.11
983.6  44003.55  26019.80  59.13
984.6  44377.46  26230.00  59.11
985.5  44900.28  26578.03  59.19
986.5  45688.01  27093.99  59.30
987.5  46285.78  27777.57  60.01
988.4  47161.40  28207.92  59.81
989.4  47812.76  28750.08  60.13
990.4  48753.98  29335.10  60.17
991.3  50274.64  30181.83  60.03
992.3  50864.45  30675.18  60.31
993.2  51610.85  31647.18  61.32
994.2  53891.66  32191.63  59.73
995.2  55394.96  32556.19  58.77
996.1  55625.12  33140.75  59.58
997.1  56348.70  32680.07  58.00
998.0  54473.40  32044.52  58.83
999.0  55283.87  32351.31  58.52
1000.0  55127.21  32101.28  58.23
1000.9  55875.58  32817.07  58.73
1001.9  56355.47  32286.14  57.29
1002.8  54776.67  32294.54  58.96
1003.8  57170.04  32832.77  57.43
1004.8  54763.20  32477.62  59.31
961.5  49984.08  27360.72  54.74
965.5  48959.90  27180.99  55.52
969.5  47367.08  26701.71  56.37
973.4  45664.01  25949.90  56.83
977.4  44063.24  25221.18  57.24
981.4  43484.76  24908.56  57.28
985.3  43466.28  24925.91  57.35
989.3  43739.41  25170.76  57.55
993.3  44088.36  25468.56  57.77
997.2  44246.85  25700.22  58.08
1001.2  44240.69  25920.18  58.59
1005.2  44147.66  26158.89  59.25
1009.1  44170.72  26508.31  60.01
1013.1  44298.35  26944.36  60.82
1017.1  44409.64  27367.26  61.62
1021.0  44418.65  27717.27  62.40
1025.0  44431.92  28050.40  63.13
1029.0  44310.95  28286.16  63.84
1032.9  44196.36  28538.60  64.57
1036.9  44214.81  28872.77  65.30
1040.9  44317.48  29268.99  66.04
1044.8  44471.57  29720.96  66.83
1048.8  44586.22  30125.29  67.57
1052.7  44660.98  30462.07  68.21
1056.7  44664.90  30706.03  68.75
1060.7  44652.74  30889.77  69.18
1064.6  44643.90  31030.57  69.51
1068.6  44545.19  31052.99  69.71
1072.5  44448.63  31031.05  69.81
1076.5  44390.31  30999.75  69.83
1080.4  44363.13  30942.44  69.75
1084.4  44428.99  30906.75  69.56
1088.3  44526.89  30838.71  69.26
1092.3  44515.11  30634.19  68.82
1096.2  44485.25  30423.85  68.39
1100.2  44489.30  30244.23  67.98
1104.1  44387.15  29957.16  67.49
1108.1  44344.78  29692.53  66.96
1112.0  44255.25  29370.00  66.37
1116.0  44078.91  28948.47  65.67
1119.9  43920.46  28477.59  64.84
1123.9  43980.05  28042.34  63.76
1127.8  43933.44  27370.24  62.30
1131.8  43891.20  26493.47  60.36
1135.7  43904.71  25475.34  58.02
1139.6  43873.24  24343.28  55.49
1143.6  43814.30  23243.53  53.05
1147.5  43764.96  22313.39  50.98
1151.4  43600.54  21532.46  49.39
1155.4  43567.43  21036.05  48.28
1159.3  43548.37  20716.72  47.57
1163.2  43379.84  20425.86  47.09
1167.2  43333.14  20267.68  46.77
1171.1  43320.14  20159.50  46.54
1175.0  43247.45  20036.72  46.33
1179.0  43203.54  19928.17  46.13
1182.9  43281.26  19872.94  45.92
1186.8  43262.79  19785.51  45.73
1190.7  43059.97  19620.08  45.56
1194.7  42822.73  19454.97  45.43
1198.6  42602.18  19347.41  45.41
1202.5  42456.57  19289.44  45.43
1206.4  42335.53  19267.70  45.51
1210.3  42230.32  19297.14  45.69
1214.2  42126.94  19346.91  45.93
1218.2  41984.08  19392.43  46.19
1222.1  41854.50  19456.78  46.49
1226.0  41760.57  19546.34  46.81
1229.9  41673.90  19635.44  47.12
1233.8  41576.55  19700.25  47.38
1237.7  41528.30  19772.00  47.61
1241.6  41457.25  19831.71  47.84
1245.5  41309.15  19849.98  48.05
1249.4  41175.26  19861.84  48.24
1253.3  41058.30  19870.53  48.40
1257.2  40978.33  19896.64  48.55
1261.1  40873.57  19895.87  48.68
1265.0  40757.89  19864.73  48.74
1268.9  40587.74  19778.88  48.73
1272.8  40626.75  19776.15  48.68
1276.7  40780.33  19812.90  48.58
1280.6  40842.56  19777.93  48.42
1284.5  40748.73  19636.39  48.19
1288.4  40697.88  19491.62  47.89
1292.3  40562.50  19279.33  47.53
1296.2  40411.46  19025.14  47.08
1300.1  40239.63  18722.79  46.53
1303.9  40009.73  18351.23  45.87
1307.8  39785.54  17954.79  45.13
1311.7  39554.21  17529.84  44.32
1315.6  39326.35  17079.77  43.43
1319.5  39086.11  16594.25  42.46
1323.3  38870.69  16096.41  41.41
1327.2  38681.53  15599.18  40.33
1331.1  38474.56  15092.87  39.23
1335.0  38203.08  14571.45  38.14
1338.8  38009.09  14108.40  37.12
1342.7  37876.27  13691.39  36.15
1346.5  37598.34  13242.76  35.22
1350.4  37400.07  12843.47  34.34
1354.3  37094.65  12419.93  33.48
1358.1  36731.71  11991.70  32.65
1362.0  36487.36  11617.18  31.84
1365.8  36370.47  11278.14  31.01
1369.7  36432.94  10954.98  30.07
1373.5  36366.82  10503.11  28.88
1377.4  36166.21  9886.22  27.34
