/*** Spectra Vista SIG Data ***/
name= CB.sig
comm= Averaged Ref/Tar of files: CB1,CB2,CB3
data=
346.4  509.60  120.61  23.67
347.9  536.51  124.25  23.16
349.5  577.20  119.39  20.68
351.1  620.88  125.22  20.17
352.6  679.94  130.30  19.16
354.2  723.22  136.13  18.82
355.7  777.89  138.30  17.78
357.3  842.60  143.79  17.06
358.8  838.80  148.65  17.72
360.4  904.00  153.83  17.02
361.9  943.76  156.48  16.58
363.5  997.20  153.74  15.42
365.1  1040.25  155.35  14.93
366.6  1087.54  158.36  14.56
368.2  1161.70  160.27  13.80
369.7  1204.79  161.07  13.37
371.3  1287.37  163.31  12.69
372.8  1354.56  161.13  11.90
374.4  1435.13  169.10  11.78
375.9  1463.02  169.91  11.61
377.4  1512.41  168.26  11.13
379.0  1578.52  169.73  10.75
380.5  1618.77  171.93  10.62
382.1  1669.58  169.82  10.17
383.6  1726.52  169.34  9.81
385.2  1809.50  169.40  9.36
386.7  1900.67  174.36  9.17
388.3  1991.93  175.01  8.79
389.8  2077.97  179.70  8.65
391.3  2163.95  184.18  8.51
392.9  2236.17  192.70  8.62
394.4  2293.88  206.93  9.02
395.9  2364.42  211.85  8.96
397.5  2493.56  220.93  8.86
399.0  2617.23  222.07  8.48
400.6  2691.33  219.99  8.17
402.1  2739.96  217.41  7.93
403.6  2797.88  215.78  7.71
405.1  2865.39  219.06  7.64
406.7  2979.20  224.00  7.52
408.2  3089.54  227.80  7.37
409.7  3183.04  238.64  7.50
411.3  3295.62  247.86  7.52
412.8  3391.47  260.38  7.68
414.3  3507.27  272.82  7.78
415.8  3622.50  285.00  7.87
417.4  3739.34  294.83  7.88
418.9  3830.42  305.96  7.99
420.4  3913.23  310.73  7.94
421.9  3978.48  319.44  8.03
423.5  4044.22  324.72  8.03
425.0  4110.68  329.03  8.00
426.5  4198.95  334.54  7.97
428.0  4314.36  344.27  7.98
429.5  4445.73  352.34  7.93
431.1  4599.50  363.00  7.89
432.6  4769.72  376.04  7.88
434.1  4937.63  385.26  7.80
435.6  5085.18  400.42  7.87
437.1  5233.80  417.56  7.98
438.6  5364.45  428.11  7.98
440.1  5501.44  441.70  8.03
441.6  5653.06  459.78  8.13
443.1  5799.60  475.74  8.20
444.7  5941.01  497.04  8.37
446.2  6051.88  514.46  8.50
447.7  6161.82  535.06  8.68
449.2  6292.08  555.26  8.82
450.7  6396.00  576.30  9.01
452.2  6529.70  589.50  9.03
453.7  6647.26  606.68  9.13
455.2  6815.62  621.79  9.12
456.7  7013.60  642.99  9.17
458.2  7232.90  665.68  9.20
459.7  7456.75  688.33  9.23
461.2  7667.16  712.83  9.30
462.7  7858.10  731.27  9.31
464.2  8041.02  752.01  9.35
465.7  8240.35  771.28  9.36
467.2  8402.63  790.28  9.41
468.7  8584.00  810.93  9.45
470.2  8698.25  829.43  9.54
471.7  8877.75  854.68  9.63
473.2  9159.71  896.59  9.79
474.6  9386.40  921.39  9.82
476.1  9450.96  925.73  9.80
477.6  9499.75  929.16  9.78
479.1  9557.87  934.50  9.78
480.6  9632.82  943.13  9.79
482.1  9760.73  960.21  9.84
483.6  9935.74  983.56  9.90
485.1  10133.78  1004.49  9.91
486.6  10366.07  1036.83  10.00
488.0  10621.00  1070.77  10.08
489.5  10873.80  1108.53  10.19
491.0  11134.31  1153.48  10.36
492.5  11404.80  1199.88  10.52
494.0  11683.71  1254.81  10.74
495.4  11917.95  1307.24  10.97
496.9  12154.26  1369.40  11.27
498.4  12387.41  1435.69  11.59
499.9  12623.63  1507.28  11.94
501.4  12839.71  1589.81  12.38
502.8  13042.06  1668.75  12.80
504.3  13226.40  1763.76  13.34
505.8  13406.54  1856.25  13.85
507.2  13518.16  1956.63  14.47
508.7  13603.31  2055.23  15.11
510.2  13672.60  2155.34  15.76
511.6  13715.26  2267.03  16.53
513.1  13806.21  2386.12  17.28
514.6  13898.29  2510.52  18.06
516.0  13992.63  2635.25  18.83
517.5  14151.40  2778.15  19.63
519.0  14339.95  2926.20  20.41
520.5  14520.56  3074.02  21.17
521.9  14760.83  3232.74  21.90
523.4  15031.28  3397.99  22.61
524.8  15295.25  3559.28  23.27
526.3  15594.01  3724.70  23.89
527.8  15909.50  3888.95  24.44
529.2  16189.50  4035.34  24.93
530.7  16509.28  4192.22  25.39
532.1  16791.25  4334.25  25.81
533.6  17121.20  4478.42  26.16
535.0  17454.94  4622.54  26.48
536.5  17789.22  4761.09  26.76
538.0  18136.88  4893.66  26.98
539.4  18461.69  5020.27  27.19
540.9  18864.39  5174.86  27.43
542.3  19206.33  5319.49  27.70
543.8  19460.81  5437.57  27.94
545.2  19544.37  5496.82  28.12
546.6  19566.05  5533.47  28.28
548.1  19604.97  5576.12  28.44
549.5  19640.65  5609.51  28.56
551.0  19664.79  5637.83  28.67
552.4  19724.92  5674.78  28.77
553.9  19761.60  5698.65  28.84
555.3  19812.20  5720.60  28.87
556.8  19934.49  5757.05  28.88
558.2  20047.50  5785.65  28.86
559.6  20200.16  5814.16  28.78
561.1  20397.00  5854.98  28.71
562.5  20617.77  5894.64  28.59
564.0  20901.40  5946.92  28.45
565.4  21161.13  5986.61  28.29
566.8  21482.31  6040.31  28.12
568.3  21793.28  6079.08  27.89
569.7  22118.60  6113.94  27.64
571.1  22425.71  6139.94  27.38
572.6  22741.56  6163.13  27.10
574.0  23030.70  6180.24  26.83
575.4  23309.44  6193.13  26.57
576.9  23581.06  6202.58  26.30
578.3  23822.01  6210.49  26.07
579.7  24048.22  6215.24  25.84
581.1  24227.75  6204.10  25.61
582.6  24429.78  6208.81  25.41
584.0  24600.48  6208.49  25.24
585.4  24853.74  6235.31  25.09
586.8  25196.68  6294.84  24.98
588.3  25573.86  6362.93  24.88
589.7  25896.78  6415.66  24.77
591.1  26104.75  6442.85  24.68
592.5  26211.06  6446.62  24.60
594.0  26269.26  6436.82  24.50
595.4  26286.44  6421.70  24.43
596.8  26295.56  6408.97  24.37
598.2  26315.92  6392.18  24.29
599.6  26317.98  6376.15  24.23
601.0  26398.05  6375.27  24.15
602.4  26470.93  6366.35  24.05
603.9  26597.64  6363.03  23.92
605.3  26727.57  6356.61  23.78
606.7  26857.80  6334.56  23.59
608.1  27088.39  6330.50  23.37
609.5  27333.21  6321.87  23.13
610.9  27623.29  6318.80  22.87
612.3  27891.32  6310.22  22.62
613.7  28252.28  6313.78  22.35
615.1  28513.62  6289.49  22.06
616.5  28776.05  6272.12  21.80
617.9  29165.50  6289.28  21.56
619.3  29543.24  6314.50  21.37
620.7  29990.55  6371.50  21.25
622.1  30437.05  6418.80  21.09
623.5  30934.60  6477.92  20.94
624.9  31494.75  6565.76  20.85
626.3  31867.36  6634.97  20.82
627.7  31569.69  6580.65  20.84
629.1  31287.59  6555.31  20.95
630.5  31184.65  6545.19  20.99
631.9  31222.21  6543.02  20.96
633.3  31256.33  6519.76  20.86
634.7  31400.48  6502.34  20.71
636.1  31461.82  6444.88  20.48
637.5  31554.77  6369.76  20.19
638.9  31702.82  6280.94  19.81
640.2  31825.04  6169.64  19.39
641.6  31863.78  6030.02  18.92
643.0  31847.61  5873.93  18.44
644.4  31829.55  5724.05  17.98
645.8  31751.71  5570.78  17.54
647.2  31867.94  5486.69  17.22
648.5  31926.34  5429.68  17.01
649.9  31776.23  5401.24  17.00
651.3  31648.05  5381.18  17.00
652.7  31449.15  5331.54  16.95
654.1  31244.46  5191.58  16.62
655.5  31005.95  5014.27  16.17
656.8  30780.41  4841.67  15.73
658.2  30925.42  4729.61  15.29
659.6  31264.45  4640.46  14.84
660.9  31536.04  4540.10  14.40
662.3  31822.64  4439.71  13.95
663.7  32096.40  4330.20  13.49
665.0  32332.90  4229.70  13.08
666.4  32562.99  4142.39  12.72
667.8  32863.56  4079.86  12.41
669.1  33114.69  4023.20  12.15
670.5  33405.09  3995.13  11.96
671.9  33586.56  3967.94  11.81
673.2  33844.75  3976.57  11.75
674.6  34082.18  3998.76  11.73
676.0  34372.41  4046.90  11.77
677.3  34659.68  4115.14  11.87
678.7  34979.63  4216.00  12.05
680.0  35399.92  4358.87  12.31
681.4  35845.89  4552.97  12.70
682.8  36270.33  4813.60  13.27
684.1  36705.24  5138.64  14.00
685.5  37104.21  5534.08  14.91
686.8  37507.62  6011.25  16.03
688.2  37862.83  6554.88  17.31
689.5  38000.96  7133.95  18.77
690.9  38124.79  7756.66  20.35
692.2  38229.60  8420.10  22.03
693.6  38334.37  9106.41  23.76
694.9  38335.34  9777.72  25.51
696.2  38393.33  10465.58  27.26
697.6  38453.39  11141.79  28.97
698.9  38522.88  11807.14  30.65
700.3  38613.54  12464.63  32.28
701.6  38716.02  13095.96  33.83
703.0  38828.83  13694.20  35.27
704.3  38882.19  14220.98  36.57
705.6  38895.39  14722.65  37.85
707.0  38949.12  15199.10  39.02
708.3  38885.46  15608.05  40.14
709.6  38817.35  15986.50  41.18
711.0  38702.88  16311.54  42.15
712.3  38573.15  16622.61  43.09
713.6  38531.64  16935.58  43.95
714.9  38462.14  17222.79  44.78
716.3  38461.08  17523.48  45.56
717.6  38479.84  17826.82  46.33
718.9  38424.85  18062.76  47.01
720.2  38251.08  18218.93  47.63
721.6  38113.53  18384.51  48.24
722.9  37945.16  18518.40  48.80
724.2  37714.27  18614.41  49.36
725.5  37534.96  18717.21  49.87
726.8  37360.68  18787.78  50.29
728.1  37271.09  18888.72  50.68
729.5  37167.13  18983.38  51.08
730.8  37093.13  19081.47  51.44
732.1  36996.92  19165.12  51.80
733.4  36936.39  19254.66  52.13
734.7  36864.47  19323.96  52.42
736.0  36851.62  19428.92  52.72
737.3  36774.45  19499.44  53.02
738.6  36845.76  19623.99  53.26
739.9  37000.34  19790.23  53.49
741.2  37119.81  19914.44  53.65
742.5  37372.03  20095.57  53.77
743.8  37768.50  20382.67  53.97
745.1  38387.22  20784.04  54.14
746.4  39127.73  21246.07  54.30
747.7  39918.22  21708.55  54.38
749.0  40672.12  22177.02  54.53
750.3  41122.66  22459.98  54.62
751.6  41047.35  22477.26  54.76
752.9  40630.59  22307.81  54.90
754.2  40176.47  22089.30  54.98
755.4  39652.21  21838.19  55.07
756.7  39478.17  21777.21  55.16
758.0  39495.60  21817.66  55.24
759.3  39730.28  21999.26  55.37
760.6  40061.56  22233.49  55.50
761.9  40384.10  22445.17  55.58
763.1  40567.56  22573.60  55.64
764.4  40796.65  22722.38  55.70
765.7  40953.25  22834.93  55.76
767.0  41079.80  22933.44  55.83
768.2  41207.04  23020.03  55.86
769.5  41279.98  23094.56  55.95
770.8  41469.61  23234.31  56.03
772.0  41501.32  23292.07  56.12
773.3  41583.65  23366.02  56.19
774.6  41708.58  23434.96  56.19
775.8  41815.15  23488.94  56.17
777.1  41846.51  23524.80  56.22
778.4  41799.94  23513.89  56.25
779.6  41775.90  23534.94  56.34
780.9  41704.00  23525.33  56.41
782.1  41523.21  23462.49  56.50
783.4  41558.40  23470.72  56.48
784.6  41567.36  23479.51  56.49
785.9  41861.56  23657.62  56.51
787.1  42409.87  24005.11  56.60
788.4  42854.47  24291.92  56.68
789.6  42849.18  24283.04  56.67
790.9  42483.96  24076.07  56.67
792.1  42011.92  23833.92  56.73
793.4  41570.15  23598.27  56.77
794.6  41283.15  23447.01  56.80
795.8  41024.39  23320.85  56.85
797.1  40758.68  23177.56  56.87
798.3  40551.64  23087.41  56.93
799.5  40444.72  23032.79  56.95
800.8  40323.21  22974.20  56.98
802.0  40187.32  22924.23  57.04
803.2  40033.64  22854.33  57.09
804.5  39942.72  22819.33  57.13
805.7  39829.66  22772.30  57.17
806.9  39715.93  22710.67  57.18
808.1  39632.97  22695.90  57.27
809.4  39553.39  22682.66  57.35
810.6  39489.45  22649.90  57.36
811.8  39474.39  22660.70  57.41
813.0  39504.71  22692.24  57.44
814.2  39525.61  22735.02  57.52
815.4  39644.33  22811.10  57.54
816.6  39709.73  22844.23  57.53
817.9  39791.57  22886.08  57.51
819.1  39719.87  22889.53  57.63
820.3  39621.11  22832.72  57.63
821.5  39546.25  22817.72  57.70
822.7  39480.04  22814.58  57.79
823.9  39499.25  22836.84  57.82
825.1  39541.96  22863.67  57.82
826.3  39583.35  22898.44  57.85
827.5  39640.56  22954.57  57.91
828.7  39708.48  23004.90  57.93
829.9  39767.03  23049.67  57.96
831.0  39870.82  23122.65  57.99
832.2  39993.87  23202.49  58.02
833.4  40076.64  23272.43  58.07
834.6  40148.44  23341.25  58.14
835.8  40238.10  23403.24  58.16
837.0  40328.28  23480.26  58.22
838.1  40500.72  23569.14  58.19
839.3  40601.19  23642.23  58.23
840.5  40716.87  23722.50  58.26
841.7  40854.11  23828.15  58.32
842.9  40980.73  23947.61  58.44
844.0  41100.82  24031.23  58.47
845.2  41245.09  24138.24  58.52
846.4  41368.25  24223.53  58.56
847.5  41564.18  24370.69  58.63
848.7  41743.64  24504.28  58.70
849.9  41936.76  24607.63  58.68
851.0  42020.98  24651.69  58.67
852.2  42107.61  24693.24  58.64
853.3  42066.96  24705.75  58.73
854.5  42098.11  24726.78  58.74
855.6  42095.43  24747.92  58.79
856.8  42111.00  24777.56  58.84
857.9  42111.88  24787.57  58.86
859.1  42240.60  24856.21  58.84
860.2  42245.56  24869.64  58.87
861.4  42273.83  24896.08  58.89
862.5  42309.54  24921.65  58.90
863.7  42384.63  24972.80  58.92
864.8  42387.10  24991.59  58.96
865.9  42333.82  24975.65  59.00
867.1  42372.33  24990.63  58.98
868.2  42368.54  25016.02  59.04
869.3  42393.50  25023.61  59.03
870.5  42342.80  24996.56  59.03
871.6  42318.48  25021.93  59.13
872.7  42385.23  25072.09  59.15
873.9  42404.90  25079.54  59.14
875.0  42391.36  25058.99  59.11
876.1  42363.75  25067.02  59.17
877.2  42397.32  25091.16  59.18
878.3  42381.77  25066.39  59.14
879.4  42397.70  25101.47  59.20
880.5  42451.56  25109.38  59.15
881.7  42410.55  25111.15  59.21
882.8  42454.72  25145.46  59.23
883.9  42482.63  25155.04  59.21
885.0  42446.04  25123.37  59.19
886.1  42420.10  25087.60  59.14
887.2  42295.80  25008.70  59.13
888.3  42201.80  24949.99  59.12
889.4  42117.30  24883.49  59.08
890.5  42026.34  24841.79  59.11
891.6  41981.69  24808.27  59.09
892.7  41962.31  24794.98  59.09
893.8  41981.79  24851.71  59.20
894.9  41952.35  24831.16  59.19
896.0  41968.71  24790.27  59.07
897.0  41952.48  24807.11  59.13
898.1  41951.64  24808.77  59.14
899.2  41983.30  24808.28  59.09
900.3  41907.57  24789.60  59.15
901.4  41820.39  24750.33  59.18
902.4  41828.99  24752.05  59.17
903.5  41775.96  24732.18  59.20
904.6  41798.96  24748.39  59.21
905.7  41805.42  24753.82  59.21
906.7  41815.90  24736.26  59.16
907.8  41839.20  24761.32  59.18
908.9  41746.38  24703.18  59.17
909.9  41734.69  24693.92  59.17
911.0  41681.88  24640.36  59.12
912.1  41602.05  24621.59  59.18
913.1  41535.52  24586.71  59.19
914.2  41457.24  24542.10  59.20
915.2  41368.59  24543.43  59.33
916.3  41436.15  24538.08  59.22
917.3  41410.15  24545.03  59.27
918.4  41310.50  24501.40  59.31
919.4  41328.17  24447.80  59.16
920.5  41309.67  24442.16  59.17
921.5  41323.66  24452.09  59.17
922.6  41255.80  24419.95  59.19
923.6  41303.54  24438.02  59.17
924.7  41344.50  24451.23  59.14
925.7  41333.16  24458.17  59.17
926.7  41356.90  24463.10  59.15
927.8  41415.30  24470.16  59.08
928.8  41570.85  24526.99  59.00
929.9  41658.93  24631.33  59.13
930.9  41879.39  24721.17  59.03
931.9  42070.56  24822.55  59.00
932.9  42412.10  25011.43  58.97
934.0  42452.50  25008.27  58.91
935.0  42440.57  25004.03  58.92
936.0  42488.02  24988.21  58.81
937.0  42429.47  24965.22  58.84
938.1  42380.86  24961.86  58.90
939.1  42337.65  24938.72  58.90
940.1  42429.30  24988.97  58.90
941.1  42615.86  25098.74  58.90
942.1  42903.92  25263.28  58.88
943.1  43057.09  25356.55  58.89
944.1  43342.63  25493.85  58.82
945.2  43356.60  25500.10  58.81
946.2  43482.48  25530.13  58.71
947.2  43549.00  25576.57  58.73
948.2  43743.16  25659.39  58.66
949.2  43840.88  25709.67  58.64
950.2  43906.25  25720.87  58.58
951.2  44010.96  25782.06  58.58
952.2  44061.91  25781.47  58.51
953.2  44318.14  25862.36  58.36
954.2  44380.80  25916.94  58.40
955.2  44428.35  25927.81  58.36
956.2  44460.20  25937.20  58.34
957.2  44542.35  25944.19  58.25
958.2  44649.94  25959.37  58.14
959.2  44705.25  25991.76  58.14
960.1  44813.66  26031.52  58.09
961.1  44928.76  26081.08  58.05
962.1  44958.75  26098.88  58.05
963.1  44986.01  26120.83  58.06
964.1  45106.16  26210.76  58.11
965.1  45270.70  26292.82  58.08
966.1  45207.41  26308.69  58.20
967.0  45355.66  26347.55  58.09
968.0  45441.48  26361.32  58.01
969.0  45453.60  26399.04  58.08
970.0  45557.64  26448.74  58.06
971.0  45615.57  26479.21  58.05
971.9  45699.86  26571.26  58.14
972.9  45781.93  26639.74  58.19
973.9  45829.88  26654.07  58.16
974.9  45973.78  26648.81  57.97
975.8  45979.65  26766.59  58.21
976.8  46106.16  26841.76  58.22
977.8  46097.80  26853.75  58.25
978.8  46103.70  26963.06  58.48
979.7  46387.55  27047.79  58.31
980.7  46405.76  27172.75  58.55
981.7  46694.84  27257.50  58.37
982.6  46857.76  27480.93  58.65
983.6  47433.79  27692.04  58.38
984.6  47818.98  28015.16  58.59
985.5  48063.24  28411.63  59.11
986.5  48770.77  28751.30  58.95
987.5  50043.63  29280.72  58.51
988.4  50895.90  29747.96  58.45
989.4  52431.75  30493.64  58.16
990.4  53425.02  30945.64  57.92
991.3  55387.31  31721.31  57.27
992.3  55950.90  32579.34  58.23
993.2  58118.31  33150.62  57.04
994.2  59457.94  34038.62  57.25
995.2  60710.63  34430.67  56.71
996.1  61737.77  34801.35  56.37
997.1  61885.85  34656.08  56.00
998.0  61668.00  34214.32  55.48
999.0  61787.86  34591.57  55.98
1000.0  62252.49  35301.41  56.71
1000.9  62564.91  34836.98  55.68
1001.9  61626.12  34218.71  55.53
1002.8  61885.09  33674.41  54.41
1003.8  61970.58  34622.06  55.87
1004.8  62064.96  34622.51  55.78
961.5  55881.62  28456.44  50.92
965.5  54589.44  28090.82  51.46
969.5  52393.79  27410.61  52.32
973.4  50126.74  26896.54  53.66
977.4  48345.52  26530.48  54.88
981.4  47464.01  26368.90  55.56
985.3  47176.98  26337.64  55.83
989.3  47304.75  26401.89  55.81
993.3  47508.66  26426.35  55.62
997.2  47541.75  26354.32  55.43
1001.2  47520.33  26310.61  55.37
1005.2  47455.76  26326.16  55.48
1009.1  47529.68  26441.09  55.63
1013.1  47663.39  26611.86  55.83
1017.1  47785.75  26754.47  55.99
1021.0  47816.50  26799.59  56.05
1025.0  47819.30  26835.12  56.12
1029.0  47652.00  26786.20  56.21
1032.9  47495.63  26745.94  56.31
1036.9  47497.16  26790.99  56.41
1040.9  47608.97  26909.42  56.52
1044.8  47827.54  27074.14  56.61
1048.8  48004.98  27215.75  56.69
1052.7  48133.54  27314.26  56.75
1056.7  48188.20  27351.85  56.76
1060.7  48194.60  27380.70  56.81
1064.6  48198.22  27413.08  56.88
1068.6  48113.17  27383.37  56.91
1072.5  48026.55  27353.11  56.95
1076.5  47975.49  27333.92  56.97
1080.4  47966.69  27327.34  56.97
1084.4  48069.59  27368.46  56.94
1088.3  48170.15  27418.42  56.92
1092.3  48152.58  27392.52  56.89
1096.2  48142.77  27355.80  56.82
1100.2  48183.64  27345.57  56.75
1104.1  48079.94  27259.22  56.70
1108.1  48035.13  27199.96  56.63
1112.0  47943.86  27093.83  56.51
1116.0  47742.57  26914.42  56.37
1119.9  47581.47  26735.55  56.19
1123.9  47666.30  26683.50  55.98
1127.8  47639.04  26548.48  55.73
1131.8  47617.38  26356.31  55.35
1135.7  47659.94  26142.34  54.85
1139.6  47675.62  25850.83  54.22
1143.6  47638.82  25510.62  53.55
1147.5  47616.88  25194.83  52.91
1151.4  47500.80  24853.80  52.32
1155.4  47513.75  24663.00  51.91
1159.3  47522.52  24545.42  51.65
1163.2  47363.89  24362.09  51.44
1167.2  47347.50  24276.14  51.27
1171.1  47369.57  24220.62  51.13
1175.0  47314.40  24133.82  51.01
1179.0  47268.08  24071.39  50.93
1182.9  47358.68  24078.03  50.84
1186.8  47350.70  24043.02  50.78
1190.7  47139.70  23888.94  50.68
1194.7  46883.87  23718.93  50.59
1198.6  46652.76  23593.19  50.57
1202.5  46480.48  23521.74  50.61
1206.4  46340.80  23480.39  50.67
1210.3  46236.01  23462.05  50.74
1214.2  46114.66  23465.98  50.89
1218.2  45952.68  23455.11  51.04
1222.1  45800.88  23445.73  51.19
1226.0  45686.61  23468.08  51.37
1229.9  45598.02  23489.60  51.51
1233.8  45484.04  23478.33  51.62
1237.7  45416.66  23480.35  51.70
1241.6  45332.53  23466.12  51.76
1245.5  45166.97  23410.74  51.83
1249.4  45023.84  23361.00  51.89
1253.3  44894.25  23312.59  51.93
1257.2  44816.00  23293.84  51.98
1261.1  44716.86  23258.99  52.01
1265.0  44587.73  23186.62  52.00
1268.9  44400.64  23065.80  51.95
1272.8  44460.00  23075.50  51.90
1276.7  44653.74  23155.05  51.85
1280.6  44733.81  23166.38  51.79
1284.5  44649.07  23077.48  51.69
1288.4  44631.63  23007.14  51.55
1292.3  44511.50  22885.50  51.41
1296.2  44360.33  22730.66  51.24
1300.1  44197.71  22528.23  50.97
1303.9  43963.66  22261.99  50.64
1307.8  43715.49  21981.43  50.28
1311.7  43464.03  21684.94  49.89
1315.6  43214.30  21367.47  49.45
1319.5  42962.15  21015.76  48.92
1323.3  42734.84  20657.48  48.34
1327.2  42525.95  20293.75  47.72
1331.1  42285.13  19906.21  47.08
1335.0  41985.32  19477.72  46.39
1338.8  41775.29  19087.64  45.69
1342.7  41609.18  18701.98  44.95
1346.5  41242.98  18198.68  44.13
1350.4  40931.78  17706.26  43.26
1354.3  40517.39  17171.23  42.38
1358.1  40047.65  16666.00  41.62
1362.0  39764.09  16294.46  40.98
