/*** Spectra Vista SIG Data ***/
name= AODB.sig
comm= Averaged Ref/Tar of files: AODB1,AODB2,AODB3
data=
346.4  509.60  121.88  23.92
347.9  536.51  122.99  22.92
349.5  577.20  125.22  21.69
351.1  620.88  127.71  20.57
352.6  679.94  132.83  19.54
354.2  723.22  137.88  19.07
355.7  777.89  142.78  18.36
357.3  842.60  148.87  17.67
358.8  838.80  150.52  17.94
360.4  904.00  150.08  16.60
361.9  943.76  154.62  16.38
363.5  997.20  159.28  15.97
365.1  1040.25  156.27  15.02
366.6  1087.54  161.12  14.81
368.2  1161.70  162.51  13.99
369.7  1204.79  161.51  13.41
371.3  1287.37  165.50  12.86
372.8  1354.56  176.18  13.01
374.4  1435.13  174.00  12.12
375.9  1463.02  180.06  12.31
377.4  1512.41  175.64  11.61
379.0  1578.52  182.46  11.56
380.5  1618.77  177.26  10.95
382.1  1669.58  181.63  10.88
383.6  1726.52  183.33  10.62
385.2  1809.50  185.90  10.27
386.7  1900.67  184.83  9.72
388.3  1991.93  198.19  9.95
389.8  2077.97  204.96  9.86
391.3  2163.95  207.95  9.61
392.9  2236.17  224.56  10.04
394.4  2293.88  228.30  9.95
395.9  2364.42  244.92  10.36
397.5  2493.56  252.80  10.14
399.0  2617.23  260.38  9.95
400.6  2691.33  259.61  9.65
402.1  2739.96  257.31  9.39
403.6  2797.88  260.53  9.31
405.1  2865.39  262.32  9.15
406.7  2979.20  267.60  8.98
408.2  3089.54  282.15  9.13
409.7  3183.04  293.89  9.23
411.3  3295.62  302.94  9.19
412.8  3391.47  315.05  9.29
414.3  3507.27  331.23  9.44
415.8  3622.50  347.33  9.59
417.4  3739.34  355.21  9.50
418.9  3830.42  371.07  9.69
420.4  3913.23  378.53  9.67
421.9  3978.48  392.36  9.86
423.5  4044.22  392.90  9.72
425.0  4110.68  403.65  9.82
426.5  4198.95  409.36  9.75
428.0  4314.36  423.91  9.83
429.5  4445.73  434.24  9.77
431.1  4599.50  453.05  9.85
432.6  4769.72  473.45  9.93
434.1  4937.63  492.29  9.97
435.6  5085.18  507.74  9.98
437.1  5233.80  527.02  10.07
438.6  5364.45  542.08  10.10
440.1  5501.44  561.71  10.21
441.6  5653.06  578.06  10.23
443.1  5799.60  596.16  10.28
444.7  5941.01  607.46  10.22
446.2  6051.88  626.17  10.35
447.7  6161.82  642.36  10.42
449.2  6292.08  657.22  10.45
450.7  6396.00  666.99  10.43
452.2  6529.70  678.84  10.40
453.7  6647.26  693.60  10.43
455.2  6815.62  714.65  10.49
456.7  7013.60  737.09  10.51
458.2  7232.90  760.75  10.52
459.7  7456.75  784.23  10.52
461.2  7667.16  815.19  10.63
462.7  7858.10  841.06  10.70
464.2  8041.02  865.96  10.77
465.7  8240.35  893.94  10.85
467.2  8402.63  918.10  10.93
468.7  8584.00  946.67  11.03
470.2  8698.25  969.20  11.14
471.7  8877.75  998.77  11.25
473.2  9159.71  1031.11  11.26
474.6  9386.40  1050.69  11.19
476.1  9450.96  1065.94  11.28
477.6  9499.75  1074.80  11.31
479.1  9557.87  1088.38  11.39
480.6  9632.82  1100.96  11.43
482.1  9760.73  1119.78  11.47
483.6  9935.74  1148.20  11.56
485.1  10133.78  1179.62  11.64
486.6  10366.07  1218.71  11.76
488.0  10621.00  1258.62  11.85
489.5  10873.80  1303.20  11.98
491.0  11134.31  1353.00  12.15
492.5  11404.80  1406.38  12.33
494.0  11683.71  1463.43  12.53
495.4  11917.95  1515.58  12.72
496.9  12154.26  1571.36  12.93
498.4  12387.41  1633.83  13.19
499.9  12623.63  1691.85  13.40
501.4  12839.71  1752.91  13.65
502.8  13042.06  1815.28  13.92
504.3  13226.40  1869.84  14.14
505.8  13406.54  1932.77  14.42
507.2  13518.16  1984.95  14.68
508.7  13603.31  2031.11  14.93
510.2  13672.60  2078.53  15.20
511.6  13715.26  2120.25  15.46
513.1  13806.21  2165.71  15.69
514.6  13898.29  2215.21  15.94
516.0  13992.63  2263.77  16.18
517.5  14151.40  2321.43  16.40
519.0  14339.95  2385.56  16.64
520.5  14520.56  2452.57  16.89
521.9  14760.83  2527.97  17.13
523.4  15031.28  2613.25  17.39
524.8  15295.25  2701.47  17.66
526.3  15594.01  2793.79  17.92
527.8  15909.50  2890.62  18.17
529.2  16189.50  2988.50  18.46
530.7  16509.28  3085.71  18.69
532.1  16791.25  3186.02  18.97
533.6  17121.20  3291.92  19.23
535.0  17454.94  3399.86  19.48
536.5  17789.22  3511.87  19.74
538.0  18136.88  3628.24  20.00
539.4  18461.69  3743.73  20.28
540.9  18864.39  3875.68  20.54
542.3  19206.33  3998.64  20.82
543.8  19460.81  4105.75  21.10
545.2  19544.37  4176.66  21.37
546.6  19566.05  4230.74  21.62
548.1  19604.97  4289.11  21.88
549.5  19640.65  4338.96  22.09
551.0  19664.79  4391.14  22.33
552.4  19724.92  4453.46  22.58
553.9  19761.60  4508.42  22.81
555.3  19812.20  4569.32  23.06
556.8  19934.49  4645.24  23.30
558.2  20047.50  4720.28  23.55
559.6  20200.16  4805.69  23.79
561.1  20397.00  4901.00  24.03
562.5  20617.77  5005.14  24.28
564.0  20901.40  5126.74  24.53
565.4  21161.13  5241.04  24.77
566.8  21482.31  5376.73  25.03
568.3  21793.28  5508.57  25.28
569.7  22118.60  5644.68  25.52
571.1  22425.71  5779.75  25.77
572.6  22741.56  5919.70  26.03
574.0  23030.70  6054.84  26.29
575.4  23309.44  6189.75  26.55
576.9  23581.06  6320.16  26.80
578.3  23822.01  6446.68  27.06
579.7  24048.22  6572.14  27.33
581.1  24227.75  6687.22  27.60
582.6  24429.78  6802.34  27.84
584.0  24600.48  6919.40  28.13
585.4  24853.74  7057.56  28.40
586.8  25196.68  7220.59  28.66
588.3  25573.86  7405.32  28.96
589.7  25896.78  7568.81  29.23
591.1  26104.75  7702.44  29.51
592.5  26211.06  7800.20  29.76
594.0  26269.26  7880.70  30.00
595.4  26286.44  7947.70  30.23
596.8  26295.56  8013.43  30.47
598.2  26315.92  8079.61  30.70
599.6  26317.98  8143.66  30.94
601.0  26398.05  8231.11  31.18
602.4  26470.93  8316.86  31.42
603.9  26597.64  8421.66  31.66
605.3  26727.57  8523.20  31.89
606.7  26857.80  8624.64  32.11
608.1  27088.39  8753.62  32.32
609.5  27333.21  8888.79  32.52
610.9  27623.29  9044.89  32.74
612.3  27891.32  9193.97  32.96
613.7  28252.28  9366.59  33.15
615.1  28513.62  9495.58  33.30
616.5  28776.05  9625.51  33.45
617.9  29165.50  9814.35  33.65
619.3  29543.24  10005.14  33.87
620.7  29990.55  10231.35  34.12
622.1  30437.05  10416.56  34.22
623.5  30934.60  10576.28  34.19
624.9  31494.75  10751.58  34.14
626.3  31867.36  10861.08  34.08
627.7  31569.69  10763.22  34.09
629.1  31287.59  10691.07  34.17
630.5  31184.65  10673.34  34.23
631.9  31222.21  10727.81  34.36
633.3  31256.33  10793.77  34.53
634.7  31400.48  10907.90  34.74
636.1  31461.82  10943.94  34.78
637.5  31554.77  11002.37  34.87
638.9  31702.82  11114.22  35.06
640.2  31825.04  11223.99  35.27
641.6  31863.78  11309.69  35.49
643.0  31847.61  11433.45  35.90
644.4  31829.55  11589.57  36.41
645.8  31751.71  11764.63  37.05
647.2  31867.94  12026.59  37.74
648.5  31926.34  12306.90  38.55
649.9  31776.23  12528.31  39.43
651.3  31648.05  12767.00  40.34
652.7  31449.15  12962.50  41.22
654.1  31244.46  12767.40  40.86
655.5  31005.95  12461.04  40.19
656.8  30780.41  12195.03  39.62
658.2  30925.42  12137.52  39.25
659.6  31264.45  12204.53  39.04
660.9  31536.04  12292.58  38.98
662.3  31822.64  12385.50  38.92
663.7  32096.40  12470.08  38.85
665.0  32332.90  12559.98  38.85
666.4  32562.99  12658.45  38.87
667.8  32863.56  12797.72  38.94
669.1  33114.69  12912.67  38.99
670.5  33405.09  13050.76  39.07
671.9  33586.56  13149.30  39.15
673.2  33844.75  13293.86  39.28
674.6  34082.18  13429.01  39.40
676.0  34372.41  13595.60  39.55
677.3  34659.68  13761.64  39.71
678.7  34979.63  13930.37  39.82
680.0  35399.92  14146.69  39.96
681.4  35845.89  14377.09  40.11
682.8  36270.33  14612.17  40.29
684.1  36705.24  14873.35  40.52
685.5  37104.21  15120.05  40.75
686.8  37507.62  15349.74  40.92
688.2  37862.83  15549.87  41.07
689.5  38000.96  15678.25  41.26
690.9  38124.79  15788.58  41.41
692.2  38229.60  15890.92  41.57
693.6  38334.37  16011.66  41.77
694.9  38335.34  16082.48  41.95
696.2  38393.33  16163.25  42.10
697.6  38453.39  16242.44  42.24
698.9  38522.88  16333.50  42.40
700.3  38613.54  16430.47  42.55
701.6  38716.02  16523.08  42.68
703.0  38828.83  16601.22  42.75
704.3  38882.19  16649.77  42.82
705.6  38895.39  16702.43  42.94
707.0  38949.12  16747.22  43.00
708.3  38885.46  16761.22  43.10
709.6  38817.35  16768.38  43.20
711.0  38702.88  16754.29  43.29
712.3  38573.15  16734.84  43.38
713.6  38531.64  16752.51  43.48
714.9  38462.14  16754.72  43.56
716.3  38461.08  16780.19  43.63
717.6  38479.84  16826.70  43.73
718.9  38424.85  16815.92  43.76
720.2  38251.08  16748.44  43.79
721.6  38113.53  16698.15  43.81
722.9  37945.16  16659.11  43.90
724.2  37714.27  16596.46  44.01
725.5  37534.96  16569.35  44.14
726.8  37360.68  16530.09  44.24
728.1  37271.09  16508.98  44.29
729.5  37167.13  16503.36  44.40
730.8  37093.13  16512.60  44.52
732.1  36996.92  16515.46  44.64
733.4  36936.39  16543.50  44.79
734.7  36864.47  16545.27  44.88
736.0  36851.62  16582.69  45.00
737.3  36774.45  16609.39  45.17
738.6  36845.76  16686.38  45.29
739.9  37000.34  16813.77  45.44
741.2  37119.81  16909.62  45.55
742.5  37372.03  17072.23  45.68
743.8  37768.50  17318.07  45.85
745.1  38387.22  17674.25  46.04
746.4  39127.73  18062.77  46.16
747.7  39918.22  18448.14  46.21
749.0  40672.12  18792.50  46.20
750.3  41122.66  18949.01  46.08
751.6  41047.35  18913.98  46.08
752.9  40630.59  18758.89  46.17
754.2  40176.47  18598.20  46.29
755.4  39652.21  18449.80  46.53
756.7  39478.17  18436.28  46.70
758.0  39495.60  18516.61  46.88
759.3  39730.28  18720.63  47.12
760.6  40061.56  18957.19  47.32
761.9  40384.10  19177.61  47.49
763.1  40567.56  19318.85  47.62
764.4  40796.65  19475.04  47.74
765.7  40953.25  19596.20  47.85
767.0  41079.80  19706.68  47.97
768.2  41207.04  19815.93  48.09
769.5  41279.98  19903.06  48.21
770.8  41469.61  20028.55  48.30
772.0  41501.32  20090.70  48.41
773.3  41583.65  20178.91  48.53
774.6  41708.58  20273.67  48.61
775.8  41815.15  20332.50  48.62
777.1  41846.51  20375.32  48.69
778.4  41799.94  20369.35  48.73
779.6  41775.90  20419.76  48.88
780.9  41704.00  20432.00  48.99
782.1  41523.21  20408.65  49.15
783.4  41558.40  20446.12  49.20
784.6  41567.36  20505.77  49.33
785.9  41861.56  20725.32  49.51
787.1  42409.87  21055.08  49.65
788.4  42854.47  21257.89  49.60
789.6  42849.18  21130.32  49.31
790.9  42483.96  20841.18  49.06
792.1  42011.92  20648.25  49.15
793.4  41570.15  20477.39  49.26
794.6  41283.15  20340.29  49.27
795.8  41024.39  20219.73  49.29
797.1  40758.68  20129.39  49.39
798.3  40551.64  20079.95  49.52
799.5  40444.72  20050.35  49.57
800.8  40323.21  20017.95  49.64
802.0  40187.32  19975.99  49.71
803.2  40033.64  19921.15  49.76
804.5  39942.72  19894.78  49.81
805.7  39829.66  19845.94  49.83
806.9  39715.93  19806.83  49.87
808.1  39632.97  19788.25  49.93
809.4  39553.39  19785.32  50.02
810.6  39489.45  19788.86  50.11
811.8  39474.39  19816.61  50.20
813.0  39504.71  19866.31  50.29
814.2  39525.61  19931.47  50.43
815.4  39644.33  20005.66  50.46
816.6  39709.73  20045.31  50.48
817.9  39791.57  20065.65  50.43
819.1  39719.87  20059.49  50.50
820.3  39621.11  19998.20  50.47
821.5  39546.25  19992.10  50.55
822.7  39480.04  19991.42  50.64
823.9  39499.25  20024.43  50.70
825.1  39541.96  20061.44  50.73
826.3  39583.35  20114.80  50.82
827.5  39640.56  20177.56  50.90
828.7  39708.48  20227.55  50.94
829.9  39767.03  20281.78  51.00
831.0  39870.82  20368.10  51.09
832.2  39993.87  20453.02  51.14
833.4  40076.64  20531.79  51.23
834.6  40148.44  20615.63  51.35
835.8  40238.10  20701.17  51.45
837.0  40328.28  20796.47  51.57
838.1  40500.72  20924.01  51.66
839.3  40601.19  21005.93  51.74
840.5  40716.87  21103.69  51.83
841.7  40854.11  21233.41  51.97
842.9  40980.73  21393.10  52.20
844.0  41100.82  21497.04  52.30
845.2  41245.09  21630.76  52.44
846.4  41368.25  21734.99  52.54
847.5  41564.18  21878.89  52.64
848.7  41743.64  22016.86  52.74
849.9  41936.76  22091.35  52.68
851.0  42020.98  22116.96  52.63
852.2  42107.61  22151.11  52.61
853.3  42066.96  22152.05  52.66
854.5  42098.11  22165.73  52.65
855.6  42095.43  22185.58  52.70
856.8  42111.00  22231.49  52.79
857.9  42111.88  22231.54  52.79
859.1  42240.60  22315.04  52.83
860.2  42245.56  22345.91  52.90
861.4  42273.83  22401.71  52.99
862.5  42309.54  22442.83  53.04
863.7  42384.63  22479.28  53.04
864.8  42387.10  22512.47  53.11
865.9  42333.82  22530.36  53.22
867.1  42372.33  22559.32  53.24
868.2  42368.54  22589.14  53.32
869.3  42393.50  22585.41  53.28
870.5  42342.80  22559.94  53.28
871.6  42318.48  22605.66  53.42
872.7  42385.23  22670.29  53.49
873.9  42404.90  22691.72  53.51
875.0  42391.36  22677.52  53.50
876.1  42363.75  22701.84  53.59
877.2  42397.32  22727.83  53.61
878.3  42381.77  22728.92  53.63
879.4  42397.70  22770.13  53.71
880.5  42451.56  22798.71  53.71
881.7  42410.55  22792.47  53.74
882.8  42454.72  22826.31  53.77
883.9  42482.63  22797.53  53.66
885.0  42446.04  22740.81  53.58
886.1  42420.10  22695.63  53.50
887.2  42295.80  22587.69  53.40
888.3  42201.80  22516.02  53.35
889.4  42117.30  22433.77  53.26
890.5  42026.34  22423.65  53.36
891.6  41981.69  22373.39  53.29
892.7  41962.31  22371.45  53.31
893.8  41981.79  22429.05  53.43
894.9  41952.35  22440.32  53.49
896.0  41968.71  22444.49  53.48
897.0  41952.48  22439.90  53.49
898.1  41951.64  22455.94  53.53
899.2  41983.30  22460.83  53.50
900.3  41907.57  22425.82  53.51
901.4  41820.39  22443.74  53.67
902.4  41828.99  22446.43  53.66
903.5  41775.96  22407.27  53.64
904.6  41798.96  22412.44  53.62
905.7  41805.42  22403.68  53.59
906.7  41815.90  22427.71  53.63
907.8  41839.20  22452.41  53.66
908.9  41746.38  22420.22  53.71
909.9  41734.69  22408.19  53.69
911.0  41681.88  22368.95  53.67
912.1  41602.05  22364.79  53.76
913.1  41535.52  22318.26  53.73
914.2  41457.24  22283.93  53.75
915.2  41368.59  22300.34  53.91
916.3  41436.15  22311.00  53.84
917.3  41410.15  22299.58  53.85
918.4  41310.50  22254.76  53.87
919.4  41328.17  22253.47  53.85
920.5  41309.67  22261.84  53.89
921.5  41323.66  22252.06  53.85
922.6  41255.80  22244.64  53.92
923.6  41303.54  22269.79  53.92
924.7  41344.50  22292.63  53.92
925.7  41333.16  22303.54  53.96
926.7  41356.90  22292.50  53.90
927.8  41415.30  22275.83  53.79
928.8  41570.85  22351.65  53.77
929.9  41658.93  22420.08  53.82
930.9  41879.39  22500.09  53.73
931.9  42070.56  22642.14  53.82
932.9  42412.10  22756.27  53.66
934.0  42452.50  22792.88  53.69
935.0  42440.57  22862.76  53.87
936.0  42488.02  22868.75  53.82
937.0  42429.47  22855.85  53.87
938.1  42380.86  22883.43  53.99
939.1  42337.65  22889.33  54.06
940.1  42429.30  22955.93  54.10
941.1  42615.86  23063.09  54.12
942.1  42903.92  23210.36  54.10
943.1  43057.09  23322.27  54.17
944.1  43342.63  23462.36  54.13
945.2  43356.60  23468.98  54.13
946.2  43482.48  23514.31  54.08
947.2  43549.00  23584.58  54.16
948.2  43743.16  23704.98  54.19
949.2  43840.88  23742.77  54.16
950.2  43906.25  23793.21  54.19
951.2  44010.96  23853.31  54.20
952.2  44061.91  23879.34  54.19
953.2  44318.14  23945.89  54.03
954.2  44380.80  24045.63  54.18
955.2  44428.35  24063.82  54.16
956.2  44460.20  24079.48  54.16
957.2  44542.35  24107.15  54.12
958.2  44649.94  24137.28  54.06
959.2  44705.25  24226.86  54.19
960.1  44813.66  24243.29  54.10
961.1  44928.76  24293.91  54.07
962.1  44958.75  24324.75  54.10
963.1  44986.01  24386.57  54.21
964.1  45106.16  24452.59  54.21
965.1  45270.70  24561.27  54.25
966.1  45207.41  24601.12  54.42
967.0  45355.66  24683.30  54.42
968.0  45441.48  24698.32  54.35
969.0  45453.60  24749.81  54.45
970.0  45557.64  24841.87  54.53
971.0  45615.57  24875.14  54.53
971.9  45699.86  24962.12  54.62
972.9  45781.93  25013.69  54.64
973.9  45829.88  25048.53  54.66
974.9  45973.78  25068.77  54.53
975.8  45979.65  25127.98  54.65
976.8  46106.16  25169.90  54.59
977.8  46097.80  25226.89  54.72
978.8  46103.70  25319.58  54.92
979.7  46387.55  25473.43  54.91
980.7  46405.76  25576.85  55.12
981.7  46694.84  25669.11  54.97
982.6  46857.76  25874.19  55.22
983.6  47433.79  26205.60  55.25
984.6  47818.98  26485.60  55.39
985.5  48063.24  26889.74  55.95
986.5  48770.77  27339.03  56.06
987.5  50043.63  27789.80  55.53
988.4  50895.90  28026.53  55.07
989.4  52431.75  28579.47  54.51
990.4  53425.02  28863.13  54.03
991.3  55387.31  29426.28  53.13
992.3  55950.90  29449.21  52.63
993.2  58118.31  30427.96  52.36
994.2  59457.94  30597.65  51.46
995.2  60710.63  30886.88  50.88
996.1  61737.77  31256.02  50.63
997.1  61885.85  31051.50  50.18
998.0  61668.00  30422.88  49.33
999.0  61787.86  29918.33  48.42
1000.0  62252.49  30101.20  48.35
1000.9  62564.91  29537.98  47.21
1001.9  61626.12  29191.32  47.37
1002.8  61885.09  29604.49  47.84
1003.8  61970.58  29559.68  47.70
1004.8  62064.96  28841.95  46.47
961.5  55881.62  27618.54  49.42
965.5  54589.44  27237.86  49.90
969.5  52393.79  26551.34  50.68
973.4  50126.74  25859.75  51.59
977.4  48345.52  25349.16  52.43
981.4  47464.01  25144.51  52.98
985.3  47176.98  25096.37  53.20
989.3  47304.75  25118.23  53.10
993.3  47508.66  25101.23  52.84
997.2  47541.75  24985.10  52.55
1001.2  47520.33  24898.16  52.39
1005.2  47455.76  24875.70  52.42
1009.1  47529.68  24962.22  52.52
1013.1  47663.39  25101.60  52.66
1017.1  47785.75  25207.09  52.75
1021.0  47816.50  25225.89  52.76
1025.0  47819.30  25214.75  52.73
1029.0  47652.00  25121.99  52.72
1032.9  47495.63  25065.21  52.77
1036.9  47497.16  25091.36  52.83
1040.9  47608.97  25187.01  52.90
1044.8  47827.54  25337.89  52.98
1048.8  48004.98  25450.71  53.02
1052.7  48133.54  25541.00  53.06
1056.7  48188.20  25586.25  53.10
1060.7  48194.60  25616.02  53.15
1064.6  48198.22  25647.48  53.21
1068.6  48113.17  25613.03  53.23
1072.5  48026.55  25579.83  53.26
1076.5  47975.49  25568.45  53.29
1080.4  47966.69  25549.36  53.26
1084.4  48069.59  25582.27  53.22
1088.3  48170.15  25631.85  53.21
1092.3  48152.58  25607.23  53.18
1096.2  48142.77  25585.99  53.15
1100.2  48183.64  25595.62  53.12
1104.1  48079.94  25532.91  53.11
1108.1  48035.13  25494.24  53.07
1112.0  47943.86  25409.06  53.00
1116.0  47742.57  25235.90  52.86
1119.9  47581.47  25072.87  52.69
1123.9  47666.30  25054.18  52.56
1127.8  47639.04  24952.32  52.38
1131.8  47617.38  24836.12  52.16
1135.7  47659.94  24727.33  51.88
1139.6  47675.62  24555.57  51.51
1143.6  47638.82  24352.58  51.12
1147.5  47616.88  24149.42  50.72
1151.4  47500.80  23909.98  50.34
1155.4  47513.75  23800.32  50.09
1159.3  47522.52  23729.75  49.93
1163.2  47363.89  23585.12  49.80
1167.2  47347.50  23526.84  49.69
1171.1  47369.57  23483.19  49.57
1175.0  47314.40  23412.51  49.48
1179.0  47268.08  23362.14  49.42
1182.9  47358.68  23372.34  49.35
1186.8  47350.70  23343.69  49.30
1190.7  47139.70  23188.10  49.19
1194.7  46883.87  23014.26  49.09
1198.6  46652.76  22884.02  49.05
1202.5  46480.48  22801.01  49.06
1206.4  46340.80  22752.68  49.10
1210.3  46236.01  22730.75  49.16
1214.2  46114.66  22719.41  49.27
1218.2  45952.68  22691.29  49.38
1222.1  45800.88  22664.10  49.48
1226.0  45686.61  22652.97  49.58
1229.9  45598.02  22641.60  49.65
1233.8  45484.04  22616.26  49.72
1237.7  45416.66  22600.84  49.76
1241.6  45332.53  22575.81  49.80
1245.5  45166.97  22507.46  49.83
1249.4  45023.84  22450.52  49.86
1253.3  44894.25  22411.99  49.92
1257.2  44816.00  22386.42  49.95
1261.1  44716.86  22341.42  49.96
1265.0  44587.73  22285.66  49.98
1268.9  44400.64  22186.93  49.97
1272.8  44460.00  22202.45  49.94
1276.7  44653.74  22283.23  49.90
1280.6  44733.81  22313.61  49.88
1284.5  44649.07  22235.68  49.80
1288.4  44631.63  22180.89  49.70
1292.3  44511.50  22073.33  49.59
1296.2  44360.33  21944.50  49.47
1300.1  44197.71  21783.74  49.29
1303.9  43963.66  21563.35  49.05
1307.8  43715.49  21340.37  48.82
1311.7  43464.03  21108.88  48.57
1315.6  43214.30  20866.71  48.29
1319.5  42962.15  20598.38  47.95
1323.3  42734.84  20331.69  47.58
1327.2  42525.95  20060.60  47.17
1331.1  42285.13  19761.78  46.73
1335.0  41985.32  19423.69  46.26
1338.8  41775.29  19110.45  45.75
1342.7  41609.18  18796.44  45.17
1346.5  41242.98  18357.17  44.51
1350.4  40931.78  17911.10  43.76
