/*** Spectra Vista SIG Data ***/
name= AODF.sig
comm= Averaged Ref/Tar of files: AODF1,AODF2,AODF3
data=
346.4  509.60  105.32  20.67
347.9  536.51  103.33  19.26
349.5  577.20  105.66  18.31
351.1  620.88  105.66  17.02
352.6  679.94  107.53  15.81
354.2  723.22  111.70  15.45
355.7  777.89  118.99  15.30
357.3  842.60  121.59  14.43
358.8  838.80  119.29  14.22
360.4  904.00  123.82  13.70
361.9  943.76  122.12  12.94
363.5  997.20  129.27  12.96
365.1  1040.25  131.77  12.67
366.6  1087.54  133.04  12.23
368.2  1161.70  126.24  10.87
369.7  1204.79  122.77  10.19
371.3  1287.37  137.85  10.71
372.8  1354.56  135.90  10.03
374.4  1435.13  139.73  9.74
375.9  1463.02  140.34  9.59
377.4  1512.41  142.24  9.40
379.0  1578.52  140.88  8.92
380.5  1618.77  145.26  8.97
382.1  1669.58  137.90  8.26
383.6  1726.52  136.84  7.93
385.2  1809.50  137.87  7.62
386.7  1900.67  140.43  7.39
388.3  1991.93  142.40  7.15
389.8  2077.97  144.94  6.97
391.3  2163.95  153.73  7.10
392.9  2236.17  157.04  7.02
394.4  2293.88  162.22  7.07
395.9  2364.42  169.98  7.19
397.5  2493.56  175.71  7.05
399.0  2617.23  176.34  6.74
400.6  2691.33  171.69  6.38
402.1  2739.96  167.53  6.11
403.6  2797.88  166.23  5.94
405.1  2865.39  160.26  5.59
406.7  2979.20  166.35  5.58
408.2  3089.54  171.67  5.56
409.7  3183.04  176.51  5.55
411.3  3295.62  181.77  5.52
412.8  3391.47  182.96  5.39
414.3  3507.27  194.49  5.55
415.8  3622.50  202.00  5.58
417.4  3739.34  212.18  5.67
418.9  3830.42  210.50  5.50
420.4  3913.23  218.68  5.59
421.9  3978.48  217.80  5.47
423.5  4044.22  221.67  5.48
425.0  4110.68  223.85  5.45
426.5  4198.95  221.59  5.28
428.0  4314.36  226.32  5.25
429.5  4445.73  230.94  5.19
431.1  4599.50  238.39  5.18
432.6  4769.72  244.80  5.13
434.1  4937.63  256.41  5.19
435.6  5085.18  264.71  5.21
437.1  5233.80  273.00  5.22
438.6  5364.45  276.41  5.15
440.1  5501.44  287.06  5.22
441.6  5653.06  294.77  5.21
443.1  5799.60  299.43  5.16
444.7  5941.01  307.15  5.17
446.2  6051.88  314.63  5.20
447.7  6161.82  323.05  5.24
449.2  6292.08  325.73  5.18
450.7  6396.00  329.19  5.15
452.2  6529.70  329.07  5.04
453.7  6647.26  335.00  5.04
455.2  6815.62  338.18  4.96
456.7  7013.60  350.12  4.99
458.2  7232.90  358.82  4.96
459.7  7456.75  370.77  4.97
461.2  7667.16  380.06  4.96
462.7  7858.10  393.32  5.01
464.2  8041.02  406.50  5.06
465.7  8240.35  418.30  5.08
467.2  8402.63  428.12  5.10
468.7  8584.00  441.60  5.14
470.2  8698.25  458.05  5.27
471.7  8877.75  474.37  5.34
473.2  9159.71  489.71  5.35
474.6  9386.40  486.93  5.19
476.1  9450.96  489.30  5.18
477.6  9499.75  489.90  5.16
479.1  9557.87  495.26  5.18
480.6  9632.82  500.77  5.20
482.1  9760.73  509.01  5.21
483.6  9935.74  518.69  5.22
485.1  10133.78  530.99  5.24
486.6  10366.07  549.82  5.30
488.0  10621.00  567.88  5.35
489.5  10873.80  591.95  5.44
491.0  11134.31  612.75  5.50
492.5  11404.80  640.65  5.62
494.0  11683.71  670.35  5.74
495.4  11917.95  699.38  5.87
496.9  12154.26  731.24  6.02
498.4  12387.41  762.53  6.16
499.9  12623.63  797.38  6.32
501.4  12839.71  835.27  6.51
502.8  13042.06  872.54  6.69
504.3  13226.40  908.40  6.87
505.8  13406.54  948.11  7.07
507.2  13518.16  984.10  7.28
508.7  13603.31  1022.27  7.51
510.2  13672.60  1057.71  7.74
511.6  13715.26  1088.78  7.94
513.1  13806.21  1123.99  8.14
514.6  13898.29  1164.61  8.38
516.0  13992.63  1196.42  8.55
517.5  14151.40  1241.91  8.78
519.0  14339.95  1288.80  8.99
520.5  14520.56  1340.43  9.23
521.9  14760.83  1393.85  9.44
523.4  15031.28  1453.58  9.67
524.8  15295.25  1520.54  9.94
526.3  15594.01  1589.62  10.19
527.8  15909.50  1660.76  10.44
529.2  16189.50  1729.89  10.69
530.7  16509.28  1808.24  10.95
532.1  16791.25  1882.62  11.21
533.6  17121.20  1962.13  11.46
535.0  17454.94  2046.89  11.73
536.5  17789.22  2132.05  11.99
538.0  18136.88  2222.23  12.25
539.4  18461.69  2311.99  12.52
540.9  18864.39  2413.25  12.79
542.3  19206.33  2510.65  13.07
543.8  19460.81  2589.93  13.31
545.2  19544.37  2649.25  13.56
546.6  19566.05  2706.21  13.83
548.1  19604.97  2758.71  14.07
549.5  19640.65  2814.49  14.33
551.0  19664.79  2864.12  14.56
552.4  19724.92  2922.07  14.81
553.9  19761.60  2975.70  15.06
555.3  19812.20  3033.81  15.31
556.8  19934.49  3099.35  15.55
558.2  20047.50  3165.08  15.79
559.6  20200.16  3236.26  16.02
561.1  20397.00  3319.55  16.27
562.5  20617.77  3403.92  16.51
564.0  20901.40  3502.00  16.75
565.4  21161.13  3598.30  17.00
566.8  21482.31  3708.55  17.26
568.3  21793.28  3815.30  17.51
569.7  22118.60  3927.98  17.76
571.1  22425.71  4042.10  18.02
572.6  22741.56  4156.71  18.28
574.0  23030.70  4269.54  18.54
575.4  23309.44  4385.03  18.81
576.9  23581.06  4498.72  19.08
578.3  23822.01  4606.51  19.34
579.7  24048.22  4721.84  19.63
581.1  24227.75  4827.13  19.92
582.6  24429.78  4934.63  20.20
584.0  24600.48  5044.19  20.50
585.4  24853.74  5168.25  20.79
586.8  25196.68  5309.37  21.07
588.3  25573.86  5463.12  21.36
589.7  25896.78  5604.45  21.64
591.1  26104.75  5725.37  21.93
592.5  26211.06  5826.09  22.23
594.0  26269.26  5918.52  22.53
595.4  26286.44  5994.42  22.80
596.8  26295.56  6074.93  23.10
598.2  26315.92  6160.07  23.41
599.6  26317.98  6240.91  23.71
601.0  26398.05  6335.26  24.00
602.4  26470.93  6434.02  24.31
603.9  26597.64  6537.91  24.58
605.3  26727.57  6655.55  24.90
606.7  26857.80  6761.28  25.17
608.1  27088.39  6900.41  25.47
609.5  27333.21  7039.29  25.75
610.9  27623.29  7195.94  26.05
612.3  27891.32  7347.38  26.34
613.7  28252.28  7519.94  26.62
615.1  28513.62  7659.79  26.86
616.5  28776.05  7810.57  27.14
617.9  29165.50  7996.05  27.42
619.3  29543.24  8185.71  27.71
620.7  29990.55  8403.39  28.02
622.1  30437.05  8532.62  28.03
623.5  30934.60  8619.80  27.86
624.9  31494.75  8713.92  27.67
626.3  31867.36  8771.93  27.53
627.7  31569.69  8693.16  27.54
629.1  31287.59  8663.35  27.69
630.5  31184.65  8745.17  28.04
631.9  31222.21  8899.04  28.50
633.3  31256.33  9045.95  28.94
634.7  31400.48  9206.46  29.32
636.1  31461.82  9309.56  29.59
637.5  31554.77  9425.30  29.87
638.9  31702.82  9582.73  30.23
640.2  31825.04  9785.03  30.75
641.6  31863.78  9958.42  31.25
643.0  31847.61  10133.53  31.82
644.4  31829.55  10309.35  32.39
645.8  31751.71  10389.62  32.72
647.2  31867.94  10515.61  33.00
648.5  31926.34  10652.33  33.37
649.9  31776.23  10747.39  33.82
651.3  31648.05  10891.90  34.42
652.7  31449.15  11001.04  34.98
654.1  31244.46  10899.11  34.88
655.5  31005.95  10725.83  34.59
656.8  30780.41  10587.95  34.40
658.2  30925.42  10605.72  34.29
659.6  31264.45  10716.22  34.28
660.9  31536.04  10838.29  34.37
662.3  31822.64  10971.91  34.48
663.7  32096.40  11093.88  34.56
665.0  32332.90  11208.01  34.66
666.4  32562.99  11336.85  34.82
667.8  32863.56  11492.11  34.97
669.1  33114.69  11611.78  35.07
670.5  33405.09  11760.44  35.21
671.9  33586.56  11876.34  35.36
673.2  33844.75  12025.42  35.53
674.6  34082.18  12167.24  35.70
676.0  34372.41  12336.35  35.89
677.3  34659.68  12508.27  36.09
678.7  34979.63  12685.12  36.26
680.0  35399.92  12905.42  36.46
681.4  35845.89  13133.81  36.64
682.8  36270.33  13356.98  36.83
684.1  36705.24  13593.53  37.03
685.5  37104.21  13817.58  37.24
686.8  37507.62  14025.28  37.39
688.2  37862.83  14217.87  37.55
689.5  38000.96  14333.62  37.72
690.9  38124.79  14441.40  37.88
692.2  38229.60  14538.74  38.03
693.6  38334.37  14647.66  38.21
694.9  38335.34  14713.83  38.38
696.2  38393.33  14794.29  38.53
697.6  38453.39  14865.48  38.66
698.9  38522.88  14959.30  38.83
700.3  38613.54  15059.15  39.00
701.6  38716.02  15163.55  39.17
703.0  38828.83  15268.48  39.32
704.3  38882.19  15335.93  39.44
705.6  38895.39  15397.82  39.59
707.0  38949.12  15476.72  39.74
708.3  38885.46  15498.04  39.86
709.6  38817.35  15518.14  39.98
711.0  38702.88  15514.68  40.09
712.3  38573.15  15512.75  40.22
713.6  38531.64  15536.53  40.32
714.9  38462.14  15564.19  40.47
716.3  38461.08  15609.49  40.59
717.6  38479.84  15660.43  40.70
718.9  38424.85  15675.31  40.79
720.2  38251.08  15625.92  40.85
721.6  38113.53  15597.44  40.92
722.9  37945.16  15584.67  41.07
724.2  37714.27  15543.56  41.21
725.5  37534.96  15532.57  41.38
726.8  37360.68  15508.13  41.51
728.1  37271.09  15517.92  41.64
729.5  37167.13  15518.65  41.75
730.8  37093.13  15542.80  41.90
732.1  36996.92  15549.26  42.03
733.4  36936.39  15579.40  42.18
734.7  36864.47  15594.57  42.30
736.0  36851.62  15644.62  42.45
737.3  36774.45  15664.38  42.60
738.6  36845.76  15755.64  42.76
739.9  37000.34  15891.49  42.95
741.2  37119.81  15983.24  43.06
742.5  37372.03  16162.25  43.25
743.8  37768.50  16408.32  43.44
745.1  38387.22  16756.57  43.65
746.4  39127.73  17123.41  43.76
747.7  39918.22  17487.53  43.81
749.0  40672.12  17831.79  43.84
750.3  41122.66  18014.36  43.81
751.6  41047.35  17991.03  43.83
752.9  40630.59  17862.30  43.96
754.2  40176.47  17724.99  44.12
755.4  39652.21  17566.83  44.30
756.7  39478.17  17571.29  44.51
758.0  39495.60  17647.87  44.68
759.3  39730.28  17829.80  44.88
760.6  40061.56  18078.37  45.13
761.9  40384.10  18306.38  45.33
763.1  40567.56  18446.54  45.47
764.4  40796.65  18615.49  45.63
765.7  40953.25  18745.13  45.77
767.0  41079.80  18840.98  45.86
768.2  41207.04  18945.47  45.98
769.5  41279.98  19040.03  46.12
770.8  41469.61  19176.04  46.24
772.0  41501.32  19248.40  46.38
773.3  41583.65  19358.32  46.55
774.6  41708.58  19455.44  46.65
775.8  41815.15  19536.66  46.72
777.1  41846.51  19592.00  46.82
778.4  41799.94  19604.61  46.90
779.6  41775.90  19646.33  47.03
780.9  41704.00  19682.67  47.20
782.1  41523.21  19671.26  47.37
783.4  41558.40  19723.95  47.46
784.6  41567.36  19788.44  47.61
785.9  41861.56  20004.59  47.79
787.1  42409.87  20334.52  47.95
788.4  42854.47  20552.28  47.96
789.6  42849.18  20461.32  47.75
790.9  42483.96  20235.75  47.63
792.1  42011.92  20050.94  47.73
793.4  41570.15  19883.12  47.83
794.6  41283.15  19778.23  47.91
795.8  41024.39  19709.87  48.04
797.1  40758.68  19626.14  48.15
798.3  40551.64  19588.69  48.31
799.5  40444.72  19565.54  48.38
800.8  40323.21  19549.33  48.48
802.0  40187.32  19523.39  48.58
803.2  40033.64  19483.61  48.67
804.5  39942.72  19467.86  48.74
805.7  39829.66  19448.56  48.83
806.9  39715.93  19423.71  48.91
808.1  39632.97  19428.26  49.02
809.4  39553.39  19444.70  49.16
810.6  39489.45  19444.88  49.24
811.8  39474.39  19489.83  49.37
813.0  39504.71  19559.76  49.51
814.2  39525.61  19633.55  49.67
815.4  39644.33  19725.24  49.76
816.6  39709.73  19756.64  49.75
817.9  39791.57  19804.36  49.77
819.1  39719.87  19803.30  49.86
820.3  39621.11  19769.71  49.90
821.5  39546.25  19753.27  49.95
822.7  39480.04  19754.77  50.04
823.9  39499.25  19808.98  50.15
825.1  39541.96  19848.87  50.20
826.3  39583.35  19913.11  50.31
827.5  39640.56  19982.93  50.41
828.7  39708.48  20040.89  50.47
829.9  39767.03  20100.71  50.55
831.0  39870.82  20210.65  50.69
832.2  39993.87  20310.04  50.78
833.4  40076.64  20386.64  50.87
834.6  40148.44  20484.38  51.02
835.8  40238.10  20582.10  51.15
837.0  40328.28  20699.22  51.33
838.1  40500.72  20816.74  51.40
839.3  40601.19  20899.44  51.47
840.5  40716.87  21009.03  51.60
841.7  40854.11  21160.82  51.80
842.9  40980.73  21294.36  51.96
844.0  41100.82  21406.31  52.08
845.2  41245.09  21525.61  52.19
846.4  41368.25  21631.12  52.29
847.5  41564.18  21796.10  52.44
848.7  41743.64  21928.47  52.53
849.9  41936.76  22026.44  52.52
851.0  42020.98  22068.83  52.52
852.2  42107.61  22106.35  52.50
853.3  42066.96  22109.27  52.56
854.5  42098.11  22129.80  52.57
855.6  42095.43  22174.32  52.68
856.8  42111.00  22216.10  52.76
857.9  42111.88  22262.61  52.87
859.1  42240.60  22367.95  52.95
860.2  42245.56  22407.04  53.04
861.4  42273.83  22456.90  53.12
862.5  42309.54  22505.68  53.19
863.7  42384.63  22578.04  53.27
864.8  42387.10  22614.43  53.35
865.9  42333.82  22633.81  53.47
867.1  42372.33  22659.75  53.48
868.2  42368.54  22705.01  53.59
869.3  42393.50  22727.45  53.61
870.5  42342.80  22702.04  53.61
871.6  42318.48  22748.88  53.76
872.7  42385.23  22841.21  53.89
873.9  42404.90  22864.20  53.92
875.0  42391.36  22885.92  53.99
876.1  42363.75  22892.85  54.04
877.2  42397.32  22950.27  54.13
878.3  42381.77  22956.19  54.17
879.4  42397.70  22986.60  54.22
880.5  42451.56  23026.13  54.24
881.7  42410.55  23024.56  54.29
882.8  42454.72  23053.74  54.30
883.9  42482.63  23064.92  54.29
885.0  42446.04  23021.18  54.24
886.1  42420.10  23001.04  54.22
887.2  42295.80  22946.89  54.25
888.3  42201.80  22886.51  54.23
889.4  42117.30  22824.86  54.19
890.5  42026.34  22813.87  54.28
891.6  41981.69  22796.85  54.30
892.7  41962.31  22779.19  54.28
893.8  41981.79  22854.23  54.44
894.9  41952.35  22888.30  54.56
896.0  41968.71  22870.33  54.49
897.0  41952.48  22907.68  54.60
898.1  41951.64  22946.32  54.70
899.2  41983.30  22949.00  54.66
900.3  41907.57  22915.36  54.68
901.4  41820.39  22892.48  54.74
902.4  41828.99  22933.82  54.83
903.5  41775.96  22896.60  54.81
904.6  41798.96  22928.00  54.85
905.7  41805.42  22952.52  54.90
906.7  41815.90  22953.14  54.89
907.8  41839.20  22980.57  54.93
908.9  41746.38  22976.06  55.04
909.9  41734.69  22979.63  55.06
911.0  41681.88  22960.01  55.08
912.1  41602.05  22908.99  55.07
913.1  41535.52  22870.23  55.06
914.2  41457.24  22835.90  55.08
915.2  41368.59  22849.13  55.23
916.3  41436.15  22853.70  55.15
917.3  41410.15  22868.02  55.22
918.4  41310.50  22831.34  55.27
919.4  41328.17  22835.53  55.25
920.5  41309.67  22837.56  55.28
921.5  41323.66  22872.29  55.35
922.6  41255.80  22837.27  55.36
923.6  41303.54  22857.25  55.34
924.7  41344.50  22880.30  55.34
925.7  41333.16  22892.88  55.39
926.7  41356.90  22906.82  55.39
927.8  41415.30  22915.66  55.33
928.8  41570.85  22994.70  55.31
929.9  41658.93  23036.57  55.30
930.9  41879.39  23151.65  55.28
931.9  42070.56  23298.72  55.38
932.9  42412.10  23466.63  55.33
934.0  42452.50  23497.49  55.35
935.0  42440.57  23506.87  55.39
936.0  42488.02  23533.65  55.39
937.0  42429.47  23518.79  55.43
938.1  42380.86  23520.50  55.50
939.1  42337.65  23541.48  55.60
940.1  42429.30  23583.97  55.58
941.1  42615.86  23692.98  55.60
942.1  42903.92  23796.91  55.47
943.1  43057.09  23927.65  55.57
944.1  43342.63  24060.67  55.51
945.2  43356.60  24092.21  55.57
946.2  43482.48  24149.31  55.54
947.2  43549.00  24189.13  55.54
948.2  43743.16  24268.82  55.48
949.2  43840.88  24310.00  55.45
950.2  43906.25  24330.85  55.42
951.2  44010.96  24395.95  55.43
952.2  44061.91  24394.58  55.36
953.2  44318.14  24492.05  55.26
954.2  44380.80  24566.22  55.35
955.2  44428.35  24573.86  55.31
956.2  44460.20  24578.35  55.28
957.2  44542.35  24603.13  55.24
958.2  44649.94  24611.28  55.12
959.2  44705.25  24675.30  55.20
960.1  44813.66  24703.96  55.13
961.1  44928.76  24760.43  55.11
962.1  44958.75  24797.38  55.16
963.1  44986.01  24785.48  55.10
964.1  45106.16  24890.88  55.18
965.1  45270.70  24975.62  55.17
966.1  45207.41  24999.81  55.30
967.0  45355.66  25031.25  55.19
968.0  45441.48  25069.73  55.17
969.0  45453.60  25117.89  55.26
970.0  45557.64  25180.31  55.27
971.0  45615.57  25239.71  55.33
971.9  45699.86  25267.58  55.29
972.9  45781.93  25233.33  55.12
973.9  45829.88  25233.39  55.06
974.9  45973.78  25251.91  54.93
975.8  45979.65  25283.13  54.99
976.8  46106.16  25221.90  54.70
977.8  46097.80  25180.17  54.62
978.8  46103.70  25237.86  54.74
979.7  46387.55  25248.52  54.43
980.7  46405.76  25258.73  54.43
981.7  46694.84  25402.46  54.40
982.6  46857.76  25554.12  54.54
983.6  47433.79  25498.12  53.76
984.6  47818.98  25801.32  53.96
985.5  48063.24  26110.47  54.33
986.5  48770.77  26390.49  54.11
987.5  50043.63  26787.70  53.53
988.4  50895.90  27215.61  53.47
989.4  52431.75  27530.83  52.51
990.4  53425.02  28006.78  52.42
991.3  55387.31  28494.64  51.45
992.3  55950.90  28771.02  51.42
993.2  58118.31  29769.74  51.22
994.2  59457.94  30125.36  50.67
995.2  60710.63  30103.52  49.59
996.1  61737.77  30196.49  48.91
997.1  61885.85  30226.35  48.84
998.0  61668.00  30468.56  49.41
999.0  61787.86  30111.04  48.73
1000.0  62252.49  30051.20  48.27
1000.9  62564.91  30482.36  48.72
1001.9  61626.12  30272.48  49.12
1002.8  61885.09  29492.99  47.66
1003.8  61970.58  29326.92  47.32
1004.8  62064.96  29146.19  46.96
961.5  55881.62  27425.18  49.08
965.5  54589.44  27067.26  49.58
969.5  52393.79  26400.97  50.39
973.4  50126.74  25784.62  51.44
977.4  48345.52  25171.96  52.07
981.4  47464.01  24851.17  52.36
985.3  47176.98  24729.23  52.42
989.3  47304.75  24743.97  52.31
993.3  47508.66  24769.26  52.14
997.2  47541.75  24728.84  52.01
1001.2  47520.33  24725.91  52.03
1005.2  47455.76  24754.65  52.16
1009.1  47529.68  24876.10  52.34
1013.1  47663.39  25039.50  52.53
1017.1  47785.75  25168.55  52.67
1021.0  47816.50  25218.42  52.74
1025.0  47819.30  25245.91  52.79
1029.0  47652.00  25194.19  52.87
1032.9  47495.63  25159.38  52.97
1036.9  47497.16  25215.25  53.09
1040.9  47608.97  25340.34  53.23
1044.8  47827.54  25524.33  53.37
1048.8  48004.98  25678.30  53.49
1052.7  48133.54  25798.23  53.60
1056.7  48188.20  25867.61  53.68
1060.7  48194.60  25915.86  53.77
1064.6  48198.22  25964.86  53.87
1068.6  48113.17  25949.80  53.93
1072.5  48026.55  25929.11  53.99
1076.5  47975.49  25923.31  54.03
1080.4  47966.69  25927.16  54.05
1084.4  48069.59  25974.46  54.04
1088.3  48170.15  26035.72  54.05
1092.3  48152.58  26029.52  54.06
1096.2  48142.77  26006.25  54.02
1100.2  48183.64  26014.84  53.99
1104.1  48079.94  25950.50  53.97
1108.1  48035.13  25911.92  53.94
1112.0  47943.86  25817.57  53.85
1116.0  47742.57  25636.37  53.70
1119.9  47581.47  25460.57  53.51
1123.9  47666.30  25395.50  53.28
1127.8  47639.04  25260.80  53.03
1131.8  47617.38  25096.47  52.70
1135.7  47659.94  24903.26  52.25
1139.6  47675.62  24644.03  51.69
1143.6  47638.82  24343.79  51.10
1147.5  47616.88  24047.00  50.50
1151.4  47500.80  23723.19  49.94
1155.4  47513.75  23533.56  49.53
1159.3  47522.52  23404.93  49.25
1163.2  47363.89  23222.94  49.03
1167.2  47347.50  23152.78  48.90
1171.1  47369.57  23105.71  48.78
1175.0  47314.40  23025.18  48.66
1179.0  47268.08  22969.92  48.59
1182.9  47358.68  22968.43  48.50
1186.8  47350.70  22928.98  48.42
1190.7  47139.70  22779.66  48.32
1194.7  46883.87  22614.41  48.23
1198.6  46652.76  22500.56  48.23
1202.5  46480.48  22436.03  48.27
1206.4  46340.80  22410.03  48.36
1210.3  46236.01  22412.29  48.47
1214.2  46114.66  22415.16  48.61
1218.2  45952.68  22410.11  48.77
1222.1  45800.88  22411.92  48.93
1226.0  45686.61  22440.06  49.12
1229.9  45598.02  22472.00  49.28
1233.8  45484.04  22480.58  49.43
1237.7  45416.66  22490.77  49.52
1241.6  45332.53  22488.41  49.61
1245.5  45166.97  22455.09  49.72
1249.4  45023.84  22421.57  49.80
1253.3  44894.25  22394.18  49.88
1257.2  44816.00  22380.53  49.94
1261.1  44716.86  22339.47  49.96
1265.0  44587.73  22294.35  50.00
1268.9  44400.64  22200.32  50.00
1272.8  44460.00  22212.90  49.96
1276.7  44653.74  22294.62  49.93
1280.6  44733.81  22312.66  49.88
1284.5  44649.07  22226.33  49.78
1288.4  44631.63  22156.78  49.64
1292.3  44511.50  22033.92  49.50
1296.2  44360.33  21877.55  49.32
1300.1  44197.71  21697.16  49.09
1303.9  43963.66  21462.04  48.82
1307.8  43715.49  21202.75  48.50
1311.7  43464.03  20924.91  48.14
1315.6  43214.30  20630.46  47.74
1319.5  42962.15  20302.31  47.26
1323.3  42734.84  19962.24  46.71
1327.2  42525.95  19615.96  46.13
1331.1  42285.13  19241.82  45.50
1335.0  41985.32  18830.97  44.85
1338.8  41775.29  18445.68  44.15
1342.7  41609.18  18065.99  43.42
1346.5  41242.98  17582.66  42.63
1350.4  40931.78  17107.35  41.79
1354.3  40517.39  16584.92  40.93
1358.1  40047.65  16081.18  40.16
1362.0  39764.09  15707.57  39.50
