/*** Spectra Vista SIG Data ***/
name= RB.sig
comm= Averaged Ref/Tar of files: RD2B1,RD2B2,RD2B3
data=
346.4  509.60  90.45  17.75
347.9  549.06  87.85  16.00
349.5  608.40  84.45  13.88
351.1  655.20  84.65  12.92
352.6  708.40  87.08  12.29
354.2  752.68  94.03  12.49
355.7  818.30  99.68  12.18
357.3  873.81  99.63  11.40
358.8  891.23  102.29  11.48
360.4  967.31  106.00  10.96
361.9  1009.93  101.46  10.05
363.5  1059.53  105.03  9.91
365.1  1102.67  102.41  9.29
366.6  1156.59  110.48  9.55
368.2  1218.77  108.56  8.91
369.7  1306.00  109.49  8.38
371.3  1379.56  108.44  7.86
372.8  1457.48  110.89  7.61
374.4  1528.58  111.70  7.31
375.9  1575.56  110.33  7.00
377.4  1632.76  110.37  6.76
379.0  1683.54  113.08  6.72
380.5  1741.87  109.76  6.30
382.1  1805.51  109.53  6.07
383.6  1862.60  104.90  5.63
385.2  1949.75  105.78  5.43
386.7  2036.04  108.30  5.32
388.3  2135.96  114.68  5.37
389.8  2212.47  113.09  5.11
391.3  2314.34  114.56  4.95
392.9  2392.65  119.11  4.98
394.4  2474.90  125.43  5.07
395.9  2552.82  134.60  5.27
397.5  2664.75  140.18  5.26
399.0  2774.82  138.43  4.99
400.6  2852.64  130.94  4.59
402.1  2910.24  125.39  4.31
403.6  2965.71  124.35  4.19
405.1  3036.77  126.59  4.17
406.7  3133.76  126.93  4.05
408.2  3234.33  128.45  3.97
409.7  3330.88  131.86  3.96
411.3  3437.91  133.88  3.89
412.8  3528.93  143.15  4.06
414.3  3634.54  151.09  4.16
415.8  3740.00  154.17  4.12
417.4  3868.37  153.82  3.98
418.9  3954.39  159.05  4.02
420.4  4037.85  164.50  4.07
421.9  4106.74  163.91  3.99
423.5  4196.00  162.67  3.88
425.0  4263.51  164.52  3.86
426.5  4364.50  163.69  3.75
428.0  4488.82  166.53  3.71
429.5  4615.58  166.69  3.61
431.1  4756.23  170.67  3.59
432.6  4917.76  174.05  3.54
434.1  5064.68  181.98  3.59
435.6  5199.35  186.14  3.58
437.1  5333.25  190.06  3.56
438.6  5454.84  197.42  3.62
440.1  5584.70  199.57  3.57
441.6  5717.14  209.20  3.66
443.1  5852.25  213.44  3.65
444.7  5982.11  217.28  3.63
446.2  6104.50  223.41  3.66
447.7  6213.60  230.71  3.71
449.2  6315.84  239.90  3.80
450.7  6414.72  239.75  3.74
452.2  6543.45  241.57  3.69
453.7  6682.65  240.76  3.60
455.2  6842.54  245.43  3.59
456.7  7029.44  253.79  3.61
458.2  7231.16  262.12  3.62
459.7  7428.75  267.28  3.60
461.2  7633.63  278.16  3.64
462.7  7815.14  284.97  3.65
464.2  8000.76  291.21  3.64
465.7  8191.53  302.78  3.70
467.2  8352.58  307.23  3.68
468.7  8552.00  314.93  3.68
470.2  8711.17  322.30  3.70
471.7  8854.00  331.08  3.74
473.2  9050.37  340.61  3.76
474.6  9252.88  348.88  3.77
476.1  9378.88  346.27  3.69
477.6  9464.51  346.61  3.66
479.1  9567.20  346.11  3.62
480.6  9658.16  347.28  3.60
482.1  9797.74  347.33  3.55
483.6  9963.22  355.86  3.57
485.1  10140.49  360.66  3.56
486.6  10356.19  369.15  3.56
488.0  10562.50  379.49  3.59
489.5  10784.97  387.82  3.60
491.0  10998.86  403.23  3.67
492.5  11224.98  413.32  3.68
494.0  11462.99  425.10  3.71
495.4  11663.85  436.59  3.74
496.9  11870.36  451.79  3.81
498.4  12074.30  461.72  3.82
499.9  12278.41  478.15  3.89
501.4  12476.75  488.95  3.92
502.8  12664.51  502.92  3.97
504.3  12846.60  515.64  4.01
505.8  13033.73  531.19  4.08
507.2  13172.68  540.45  4.10
508.7  13289.99  553.03  4.16
510.2  13412.81  564.50  4.21
511.6  13494.72  569.14  4.22
513.1  13630.43  576.71  4.23
514.6  13795.53  586.96  4.25
516.0  13946.28  598.56  4.29
517.5  14135.83  610.00  4.32
519.0  14365.19  622.42  4.33
520.5  14579.60  635.12  4.36
521.9  14828.55  646.18  4.36
523.4  15093.49  665.65  4.41
524.8  15349.14  680.28  4.43
526.3  15633.70  699.67  4.48
527.8  15915.89  716.11  4.50
529.2  16178.21  733.47  4.53
530.7  16455.24  749.65  4.56
532.1  16698.15  765.09  4.58
533.6  16994.07  783.77  4.61
535.0  17295.55  802.15  4.64
536.5  17581.25  818.60  4.66
538.0  17895.84  838.55  4.69
539.4  18160.64  855.72  4.71
540.9  18488.86  880.76  4.76
542.3  18738.28  904.09  4.82
543.8  18940.29  922.67  4.87
545.2  19020.35  930.10  4.89
546.6  19057.19  935.22  4.91
548.1  19121.11  939.89  4.92
549.5  19166.91  946.36  4.94
551.0  19217.70  953.19  4.96
552.4  19311.21  962.52  4.98
553.9  19371.38  972.45  5.02
555.3  19461.20  983.15  5.05
556.8  19596.88  997.67  5.09
558.2  19743.75  1013.52  5.13
559.6  19902.71  1027.64  5.16
561.1  20117.50  1050.51  5.22
562.5  20332.52  1076.67  5.30
564.0  20611.34  1109.08  5.38
565.4  20865.50  1138.39  5.46
566.8  21177.73  1176.24  5.55
568.3  21463.05  1208.41  5.63
569.7  21776.78  1248.38  5.73
571.1  22080.65  1288.54  5.84
572.6  22373.82  1328.08  5.94
574.0  22675.95  1372.91  6.05
575.4  22958.44  1416.60  6.17
576.9  23231.09  1465.93  6.31
578.3  23477.03  1508.65  6.43
579.7  23721.74  1560.18  6.58
581.1  23920.49  1606.17  6.71
582.6  24132.47  1655.35  6.86
584.0  24305.80  1707.59  7.03
585.4  24549.94  1774.15  7.23
586.8  24845.17  1846.73  7.43
588.3  25201.80  1924.42  7.64
589.7  25517.70  2001.79  7.84
591.1  25735.55  2061.98  8.01
592.5  25883.00  2119.51  8.19
594.0  25998.42  2171.45  8.35
595.4  26057.54  2222.14  8.53
596.8  26115.38  2268.84  8.69
598.2  26174.55  2321.71  8.87
599.6  26202.06  2374.71  9.06
601.0  26298.70  2428.00  9.23
602.4  26372.18  2486.13  9.43
603.9  26501.77  2547.46  9.61
605.3  26625.41  2604.83  9.78
606.7  26749.80  2660.64  9.95
608.1  26941.18  2722.45  10.11
609.5  27151.69  2788.18  10.27
610.9  27387.74  2855.54  10.43
612.3  27589.20  2921.38  10.59
613.7  27871.80  2992.01  10.73
615.1  28061.64  3053.38  10.88
616.5  28235.16  3115.09  11.03
617.9  28534.12  3194.21  11.19
619.3  28808.15  3278.37  11.38
620.7  29149.14  3374.81  11.58
622.1  29527.66  3478.28  11.78
623.5  29951.83  3595.71  12.00
624.9  30436.35  3740.78  12.29
626.3  30757.12  3880.70  12.62
627.7  30461.43  3950.04  12.97
629.1  30188.34  3985.21  13.20
630.5  30083.03  4018.12  13.36
631.9  30076.12  4056.57  13.49
633.3  30078.24  4089.11  13.59
634.7  30183.54  4119.03  13.65
636.1  30268.81  4112.03  13.59
637.5  30374.19  4092.51  13.47
638.9  30520.15  4037.73  13.23
640.2  30643.60  3950.29  12.89
641.6  30733.56  3847.90  12.52
643.0  30777.50  3750.44  12.19
644.4  30869.16  3678.56  11.92
645.8  30855.38  3622.12  11.74
647.2  31023.20  3590.06  11.57
648.5  31185.15  3577.13  11.47
649.9  31117.13  3564.71  11.46
651.3  31099.80  3574.76  11.49
652.7  31059.00  3599.75  11.59
654.1  30961.56  3536.82  11.42
655.5  30829.51  3442.18  11.17
656.8  30685.81  3340.46  10.89
658.2  30861.69  3279.99  10.63
659.6  31181.89  3239.05  10.39
660.9  31452.29  3184.03  10.12
662.3  31767.46  3120.36  9.82
663.7  32102.70  3061.52  9.54
665.0  32334.98  2998.66  9.27
666.4  32575.38  2946.07  9.04
667.8  32873.84  2909.20  8.85
669.1  33084.01  2873.91  8.69
670.5  33327.47  2852.15  8.56
671.9  33513.12  2838.18  8.47
673.2  33742.50  2848.14  8.44
674.6  33950.66  2865.08  8.44
676.0  34219.05  2906.34  8.49
677.3  34494.18  2963.73  8.59
678.7  34767.13  3049.80  8.77
680.0  35103.31  3179.08  9.06
681.4  35420.13  3352.12  9.46
682.8  35763.00  3579.79  10.01
684.1  36073.44  3880.19  10.76
685.5  36318.59  4242.17  11.68
686.8  36607.26  4687.29  12.80
688.2  36844.31  5189.52  14.08
689.5  36898.97  5737.42  15.55
690.9  36950.15  6326.42  17.12
692.2  37008.15  6945.18  18.77
693.6  37024.93  7589.81  20.50
694.9  37005.38  8216.17  22.20
696.2  37027.13  8862.19  23.93
697.6  37047.86  9495.40  25.63
698.9  37049.76  10118.59  27.31
700.3  37075.62  10720.41  28.91
701.6  37124.24  11285.64  30.40
703.0  37178.40  11815.33  31.78
704.3  37172.20  12292.21  33.07
705.6  37157.22  12732.82  34.27
707.0  37168.46  13153.40  35.39
708.3  37076.04  13523.23  36.47
709.6  36967.81  13853.27  37.47
711.0  36867.73  14152.33  38.39
712.3  36770.31  14428.14  39.24
713.6  36755.88  14707.06  40.01
714.9  36684.64  14952.92  40.76
716.3  36701.44  15218.93  41.47
717.6  36734.04  15475.21  42.13
718.9  36680.73  15673.30  42.73
720.2  36496.25  15824.98  43.36
721.6  36394.28  15957.83  43.85
722.9  36240.12  16073.23  44.35
724.2  36067.30  16143.27  44.76
725.5  35963.70  16220.43  45.10
726.8  35833.96  16277.81  45.43
728.1  35810.80  16350.83  45.66
729.5  35779.10  16416.73  45.88
730.8  35779.13  16489.97  46.09
732.1  35704.25  16536.60  46.32
733.4  35690.92  16588.69  46.48
734.7  35685.89  16631.33  46.60
736.0  35729.66  16700.84  46.74
737.3  35717.44  16745.35  46.88
738.6  35830.21  16846.55  47.02
739.9  36014.88  16975.14  47.13
741.2  36161.58  17079.61  47.23
742.5  36363.94  17228.98  47.38
743.8  36737.66  17460.91  47.53
745.1  37309.08  17804.71  47.72
746.4  37926.98  18209.92  48.01
747.7  38536.99  18642.81  48.38
749.0  39118.92  19069.24  48.75
750.3  39493.02  19335.98  48.96
751.6  39440.80  19367.54  49.11
752.9  39084.79  19230.42  49.20
754.2  38731.25  19043.05  49.17
755.4  38386.91  18852.47  49.11
756.7  38244.09  18790.19  49.13
758.0  38261.36  18821.56  49.19
759.3  38489.95  18974.81  49.30
760.6  38786.44  19159.86  49.40
761.9  39062.28  19343.47  49.52
763.1  39197.21  19458.41  49.64
764.4  39371.54  19588.84  49.75
765.7  39490.75  19690.88  49.86
767.0  39577.16  19785.06  49.99
768.2  39644.64  19867.45  50.11
769.5  39697.68  19936.78  50.22
770.8  39836.32  20045.74  50.32
772.0  39856.44  20092.82  50.41
773.3  39898.95  20165.20  50.54
774.6  39978.84  20240.37  50.63
775.8  40054.79  20290.14  50.66
777.1  40085.96  20316.76  50.68
778.4  40059.57  20308.76  50.70
779.6  39999.54  20324.12  50.81
780.9  39948.00  20320.00  50.87
782.1  39837.20  20278.07  50.90
783.4  39802.88  20280.83  50.95
784.6  39851.08  20313.16  50.97
785.9  40095.40  20468.13  51.05
787.1  40531.58  20739.99  51.17
788.4  40834.19  21001.66  51.43
789.6  40796.10  21048.86  51.60
790.9  40479.11  20901.72  51.64
792.1  40128.24  20704.86  51.60
793.4  39739.41  20497.20  51.58
794.6  39507.48  20366.67  51.55
795.8  39314.07  20257.73  51.53
797.1  39097.95  20140.37  51.51
798.3  38940.83  20059.99  51.51
799.5  38821.14  20014.47  51.56
800.8  38733.05  19973.98  51.57
802.0  38591.76  19928.68  51.64
803.2  38469.72  19875.95  51.67
804.5  38377.94  19846.54  51.71
805.7  38264.87  19799.50  51.74
806.9  38181.95  19750.12  51.73
808.1  38074.65  19720.30  51.79
809.4  38033.33  19693.96  51.78
810.6  37951.55  19660.85  51.81
811.8  37942.61  19659.01  51.81
813.0  37965.80  19663.89  51.79
814.2  37975.49  19713.31  51.91
815.4  38039.93  19760.37  51.95
816.6  38032.65  19790.75  52.04
817.9  38050.16  19825.88  52.10
819.1  37997.24  19807.09  52.13
820.3  37865.18  19760.63  52.19
821.5  37787.61  19723.19  52.19
822.7  37714.41  19699.76  52.23
823.9  37704.87  19692.10  52.23
825.1  37688.07  19685.50  52.23
826.3  37716.38  19686.89  52.20
827.5  37726.06  19685.82  52.18
828.7  37779.60  19676.70  52.08
829.9  37796.29  19674.55  52.05
831.0  37849.02  19685.29  52.01
832.2  37913.75  19706.64  51.98
833.4  37950.44  19726.91  51.98
834.6  37978.13  19743.75  51.99
835.8  38031.53  19773.18  51.99
837.0  38073.26  19808.64  52.03
838.1  38178.69  19878.61  52.07
839.3  38239.24  19915.38  52.08
840.5  38296.24  19962.88  52.13
841.7  38381.58  20042.27  52.22
842.9  38485.06  20130.72  52.31
844.0  38543.94  20181.14  52.36
845.2  38626.85  20268.72  52.47
846.4  38724.98  20337.06  52.52
847.5  38888.12  20448.72  52.58
848.7  39002.30  20548.06  52.68
849.9  39141.74  20634.28  52.72
851.0  39173.78  20692.39  52.82
852.2  39245.07  20728.09  52.82
853.3  39202.67  20729.42  52.88
854.5  39188.19  20760.26  52.98
855.6  39170.88  20767.72  53.02
856.8  39193.80  20791.53  53.05
857.9  39192.81  20783.45  53.03
859.1  39326.60  20828.28  52.96
860.2  39300.24  20826.15  52.99
861.4  39344.78  20854.41  53.00
862.5  39384.29  20880.97  53.02
863.7  39467.66  20907.83  52.97
864.8  39454.45  20907.16  52.99
865.9  39398.65  20895.66  53.04
867.1  39448.45  20909.53  53.00
868.2  39441.53  20908.95  53.01
869.3  39465.67  20905.37  52.97
870.5  39438.89  20871.95  52.92
871.6  39473.54  20878.38  52.89
872.7  39541.37  20895.70  52.85
873.9  39548.50  20891.14  52.82
875.0  39546.05  20865.12  52.76
876.1  39583.15  20850.16  52.67
877.2  39616.79  20846.46  52.62
878.3  39601.98  20812.55  52.55
879.4  39662.11  20821.39  52.50
880.5  39702.60  20826.96  52.46
881.7  39698.10  20811.79  52.43
882.8  39775.46  20809.82  52.32
883.9  39785.32  20798.48  52.28
885.0  39766.55  20746.27  52.17
886.1  39735.85  20716.44  52.14
887.2  39664.66  20622.27  51.99
888.3  39567.00  20545.46  51.93
889.4  39535.02  20469.91  51.78
890.5  39459.91  20408.93  51.72
891.6  39428.33  20321.68  51.54
892.7  39429.01  20305.00  51.50
893.8  39492.50  20284.99  51.36
894.9  39505.51  20264.34  51.29
896.0  39527.49  20218.03  51.15
897.0  39487.40  20185.32  51.12
898.1  39490.45  20176.17  51.09
899.2  39536.22  20141.40  50.94
900.3  39503.73  20083.33  50.84
901.4  39454.09  20036.58  50.78
902.4  39461.49  20004.43  50.69
903.5  39418.10  19954.34  50.62
904.6  39431.18  19918.63  50.51
905.7  39454.64  19903.23  50.45
906.7  39397.52  19864.80  50.42
907.8  39514.80  19847.15  50.23
908.9  39443.33  19764.75  50.11
909.9  39411.21  19709.84  50.01
911.0  39357.50  19653.57  49.94
912.1  39280.99  19569.68  49.82
913.1  39233.48  19497.19  49.70
914.2  39173.92  19426.79  49.59
915.2  39170.79  19382.60  49.48
916.3  39094.50  19344.91  49.48
917.3  39076.47  19294.43  49.38
918.4  39031.30  19183.95  49.15
919.4  39022.48  19112.95  48.98
920.5  39026.74  19050.58  48.81
921.5  39018.63  18970.09  48.62
922.6  38959.72  18883.37  48.47
923.6  39026.05  18828.71  48.25
924.7  39022.50  18771.65  48.10
925.7  39030.84  18706.71  47.93
926.7  39009.32  18651.92  47.81
927.8  39032.57  18583.14  47.61
928.8  39142.62  18551.53  47.39
929.9  39330.10  18507.04  47.06
930.9  39447.46  18494.83  46.88
931.9  39602.61  18482.75  46.67
932.9  39864.58  18529.02  46.48
934.0  39909.81  18435.53  46.19
935.0  39942.68  18350.06  45.94
936.0  39929.50  18239.72  45.68
937.0  39883.94  18105.77  45.40
938.1  39848.52  18000.32  45.17
939.1  39753.89  17900.47  45.03
940.1  39867.76  17827.99  44.72
941.1  39995.43  17827.14  44.57
942.1  40229.45  17815.60  44.28
943.1  40393.76  17790.17  44.04
944.1  40552.56  17773.35  43.83
945.2  40570.32  17698.52  43.62
946.2  40685.67  17611.11  43.29
947.2  40740.25  17517.68  43.00
948.2  40874.09  17453.75  42.70
949.2  40954.06  17379.81  42.44
950.2  41026.00  17295.55  42.16
951.2  41012.16  17176.93  41.88
952.2  41170.94  17089.18  41.51
953.2  41257.13  17013.52  41.24
954.2  41395.95  16915.16  40.86
955.2  41401.94  16805.55  40.59
956.2  41391.82  16726.85  40.41
957.2  41524.97  16653.62  40.11
958.2  41486.28  16571.68  39.94
959.2  41625.00  16553.43  39.77
960.1  41647.94  16495.78  39.61
961.1  41725.78  16489.55  39.52
962.1  41752.50  16424.31  39.34
963.1  41720.60  16436.49  39.40
964.1  41837.60  16431.22  39.27
965.1  41932.95  16430.45  39.18
966.1  41961.44  16443.59  39.19
967.0  42058.17  16475.31  39.17
968.0  42094.69  16433.21  39.04
969.0  42115.20  16450.89  39.06
970.0  42092.26  16463.14  39.11
971.0  42266.18  16476.59  38.98
971.9  42275.33  16511.78  39.06
972.9  42388.85  16544.11  39.03
973.9  42492.13  16580.92  39.02
974.9  42580.28  16601.19  38.99
975.8  42630.52  16651.07  39.06
976.8  42806.43  16664.61  38.93
977.8  42848.34  16723.06  39.03
978.8  42868.95  16827.51  39.25
979.7  43050.58  16904.87  39.27
980.7  43264.32  17027.37  39.36
981.7  43347.07  17098.25  39.44
982.6  43545.07  17254.79  39.63
983.6  44003.55  17479.93  39.72
984.6  44377.46  17714.76  39.92
985.5  44900.28  18028.87  40.15
986.5  45688.01  18317.36  40.09
987.5  46285.78  18740.39  40.49
988.4  47161.40  19106.41  40.51
989.4  47812.76  19657.75  41.11
990.4  48753.98  20202.25  41.44
991.3  50274.64  20802.90  41.38
992.3  50864.45  21206.56  41.69
993.2  51610.85  21856.07  42.35
994.2  53891.66  22821.73  42.35
995.2  55394.96  22885.39  41.31
996.1  55625.12  23452.20  42.16
997.1  56348.70  23125.77  41.04
998.0  54473.40  23388.16  42.94
999.0  55283.87  23534.79  42.57
1000.0  55127.21  23650.94  42.90
1000.9  55875.58  24055.35  43.05
1001.9  56355.47  23947.69  42.49
1002.8  54776.67  23889.88  43.61
1003.8  57170.04  24380.91  42.65
1004.8  54763.20  24521.74  44.78
961.5  49984.08  18240.48  36.49
965.5  48959.90  18196.48  37.17
969.5  47367.08  17894.23  37.78
973.4  45664.01  17640.52  38.63
977.4  44063.24  17454.00  39.61
981.4  43484.76  17358.20  39.92
985.3  43466.28  17307.84  39.82
989.3  43739.41  17278.43  39.50
993.3  44088.36  17281.07  39.20
997.2  44246.85  17282.36  39.06
1001.2  44240.69  17371.99  39.27
1005.2  44147.66  17555.18  39.76
1009.1  44170.72  17807.35  40.31
1013.1  44298.35  18111.13  40.88
1017.1  44409.64  18414.41  41.46
1021.0  44418.65  18641.41  41.97
1025.0  44431.92  18874.40  42.48
1029.0  44310.95  19055.39  43.00
1032.9  44196.36  19255.51  43.57
1036.9  44214.81  19512.59  44.13
1040.9  44317.48  19796.60  44.67
1044.8  44471.57  20109.17  45.22
1048.8  44586.22  20379.89  45.71
1052.7  44660.98  20595.82  46.12
1056.7  44664.90  20739.93  46.43
1060.7  44652.74  20868.55  46.74
1064.6  44643.90  20968.47  46.97
1068.6  44545.19  20983.14  47.11
1072.5  44448.63  20970.48  47.18
1076.5  44390.31  20942.17  47.18
1080.4  44363.13  20898.90  47.11
1084.4  44428.99  20864.54  46.96
1088.3  44526.89  20805.02  46.72
1092.3  44515.11  20659.71  46.41
1096.2  44485.25  20488.77  46.06
1100.2  44489.30  20341.63  45.72
1104.1  44387.15  20138.39  45.37
1108.1  44344.78  19952.66  44.99
1112.0  44255.25  19727.30  44.58
1116.0  44078.91  19436.43  44.09
1119.9  43920.46  19109.09  43.51
1123.9  43980.05  18795.79  42.74
1127.8  43933.44  18310.40  41.68
1131.8  43891.20  17677.13  40.27
1135.7  43904.71  16967.53  38.65
1139.6  43873.24  16187.57  36.90
1143.6  43814.30  15446.29  35.25
1147.5  43764.96  14834.37  33.90
1151.4  43600.54  14305.91  32.81
1155.4  43567.43  13979.17  32.09
1159.3  43548.37  13782.86  31.65
1163.2  43379.84  13581.38  31.31
1167.2  43333.14  13469.70  31.08
1171.1  43320.14  13385.91  30.90
1175.0  43247.45  13290.94  30.73
1179.0  43203.54  13218.72  30.60
1182.9  43281.26  13174.73  30.44
1186.8  43262.79  13121.03  30.33
1190.7  43059.97  13009.66  30.21
1194.7  42822.73  12897.35  30.12
1198.6  42602.18  12823.97  30.10
1202.5  42456.57  12795.92  30.14
1206.4  42335.53  12792.80  30.22
1210.3  42230.32  12806.37  30.33
1214.2  42126.94  12845.55  30.49
1218.2  41984.08  12877.73  30.67
1222.1  41854.50  12919.88  30.87
1226.0  41760.57  12986.80  31.10
1229.9  41673.90  13038.00  31.29
1233.8  41576.55  13079.23  31.46
1237.7  41528.30  13127.84  31.61
1241.6  41457.25  13156.43  31.73
1245.5  41309.15  13155.45  31.85
1249.4  41175.26  13156.04  31.95
1253.3  41058.30  13168.50  32.07
1257.2  40978.33  13188.56  32.18
1261.1  40873.57  13183.24  32.25
1265.0  40757.89  13156.24  32.28
1268.9  40587.74  13086.47  32.24
1272.8  40626.75  13078.65  32.19
1276.7  40780.33  13102.98  32.13
1280.6  40842.56  13085.92  32.04
1284.5  40748.73  12993.65  31.89
1288.4  40697.88  12890.86  31.67
1292.3  40562.50  12751.75  31.44
1296.2  40411.46  12583.01  31.14
1300.1  40239.63  12378.61  30.76
1303.9  40009.73  12128.73  30.31
1307.8  39785.54  11863.89  29.82
1311.7  39554.21  11573.13  29.26
1315.6  39326.35  11270.10  28.66
1319.5  39086.11  10949.44  28.01
1323.3  38870.69  10625.14  27.33
1327.2  38681.53  10305.08  26.64
1331.1  38474.56  9979.93  25.94
1335.0  38203.08  9647.99  25.25
1338.8  38009.09  9350.74  24.60
1342.7  37876.27  9079.00  23.97
1346.5  37598.34  8770.50  23.33
1350.4  37400.07  8484.99  22.69
1354.3  37094.65  8200.72  22.11
1358.1  36731.71  7929.30  21.59
1362.0  36487.36  7698.36  21.10
1365.8  36370.47  7495.14  20.61
1369.7  36432.94  7286.25  20.00
1373.5  36366.82  6979.34  19.19
1377.4  36166.21  6570.64  18.17
1381.2  35990.96  6114.39  16.99
