/*** Spectra Vista SIG Data ***/
name= RS3.sig
comm= SIG file reprocesed for matching/overlap;Averaged Ref/Tar of files: RD5S7,RD5S8,RD5S9
data=
346.4  366.28  116.78  31.88
347.9  400.03  115.04  28.76
349.5  432.12  123.97  28.69
351.1  468.00  125.63  26.84
352.6  496.51  131.56  26.50
354.2  520.33  137.45  26.42
355.7  575.84  141.88  24.64
357.3  598.14  145.64  24.35
358.8  616.87  150.98  24.48
360.4  668.33  156.18  23.37
361.9  686.05  159.73  23.28
363.5  715.01  161.12  22.53
365.1  743.78  167.83  22.56
366.6  778.54  168.94  21.70
368.2  824.27  171.46  20.80
369.7  873.39  176.31  20.19
371.3  928.49  183.50  19.76
372.8  977.74  190.35  19.47
374.4  1016.27  191.35  18.83
375.9  1052.58  197.71  18.78
377.4  1084.71  199.05  18.35
379.0  1129.79  203.68  18.03
380.5  1157.14  205.17  17.73
382.1  1186.43  204.88  17.27
383.6  1234.64  210.54  17.05
385.2  1293.88  207.53  16.04
386.7  1345.63  213.71  15.88
388.3  1410.38  225.01  15.95
389.8  1464.46  230.58  15.75
391.3  1527.57  236.54  15.48
392.9  1567.60  242.39  15.46
394.4  1609.87  250.46  15.56
395.9  1662.63  263.34  15.84
397.5  1749.05  268.74  15.36
399.0  1827.74  270.69  14.81
400.6  1876.29  272.81  14.54
402.1  1904.04  271.42  14.25
403.6  1943.17  271.72  13.98
405.1  1994.81  275.72  13.82
406.7  2061.92  277.46  13.46
408.2  2135.06  288.98  13.53
409.7  2198.56  294.19  13.38
411.3  2272.05  303.86  13.37
412.8  2335.64  311.26  13.33
414.3  2399.77  317.20  13.22
415.8  2475.00  327.33  13.23
417.4  2547.71  337.00  13.23
418.9  2612.23  343.74  13.16
420.4  2658.25  349.95  13.16
421.9  2705.56  351.06  12.98
423.5  2743.63  352.12  12.83
425.0  2788.02  349.71  12.54
426.5  2844.45  361.20  12.70
428.0  2917.63  365.62  12.53
429.5  3009.90  372.09  12.36
431.1  3112.45  381.06  12.24
432.6  3227.88  392.70  12.17
434.1  3329.29  403.48  12.12
435.6  3423.98  413.57  12.08
437.1  3517.80  425.10  12.08
438.6  3607.74  433.61  12.02
440.1  3694.39  444.34  12.03
441.6  3790.73  452.30  11.93
443.1  3873.83  461.97  11.93
444.7  3959.99  466.35  11.78
446.2  4024.76  474.89  11.80
447.7  4101.41  481.26  11.73
449.2  4174.20  487.87  11.69
450.7  4238.00  486.44  11.48
452.2  4313.18  497.27  11.53
453.7  4393.64  500.64  11.39
455.2  4491.99  509.06  11.33
456.7  4618.24  521.19  11.29
458.2  4761.06  534.97  11.24
459.7  4899.13  551.37  11.25
461.2  5044.37  569.98  11.30
462.7  5165.05  581.39  11.26
464.2  5287.79  598.53  11.32
465.7  5408.14  608.31  11.25
467.2  5518.98  623.70  11.30
468.7  5631.00  640.00  11.37
470.2  5705.20  656.37  11.50
471.7  5821.13  667.22  11.46
473.2  6011.22  672.27  11.18
474.6  6153.75  687.76  11.18
476.1  6204.18  694.79  11.20
477.6  6220.94  697.39  11.21
479.1  6250.52  693.96  11.10
480.6  6293.37  695.28  11.05
482.1  6374.96  699.60  10.97
483.6  6474.12  706.01  10.91
485.1  6599.29  715.51  10.84
486.6  6739.10  728.63  10.81
488.0  6898.13  744.25  10.79
489.5  7058.36  762.06  10.80
491.0  7224.81  778.73  10.78
492.5  7392.87  796.39  10.77
494.0  7557.79  810.74  10.73
495.4  7702.20  828.52  10.76
496.9  7844.83  845.91  10.78
498.4  7990.29  859.11  10.75
499.9  8131.50  872.03  10.72
501.4  8263.45  891.34  10.79
502.8  8392.79  901.61  10.74
504.3  8499.60  915.12  10.77
505.8  8611.18  927.40  10.77
507.2  8674.01  937.30  10.81
508.7  8728.20  940.46  10.77
510.2  8764.92  946.27  10.80
511.6  8789.76  950.79  10.82
513.1  8840.43  957.94  10.84
514.6  8904.34  968.15  10.87
516.0  8958.85  971.11  10.84
517.5  9056.55  981.72  10.84
519.0  9171.31  993.35  10.83
520.5  9287.32  1008.49  10.86
521.9  9437.16  1025.55  10.87
523.4  9612.27  1048.23  10.91
524.8  9785.79  1066.60  10.90
526.3  9984.58  1093.90  10.96
527.8  10184.06  1122.30  11.02
529.2  10366.76  1144.45  11.04
530.7  10567.61  1171.80  11.09
532.1  10746.40  1197.22  11.14
533.6  10959.02  1224.24  11.17
535.0  11168.56  1252.94  11.22
536.5  11376.00  1285.01  11.30
538.0  11592.92  1309.34  11.29
539.4  11785.91  1333.81  11.32
540.9  12037.93  1362.83  11.32
542.3  12246.63  1377.83  11.25
543.8  12400.56  1399.34  11.28
545.2  12445.48  1407.37  11.31
546.6  12442.01  1410.67  11.34
548.1  12455.19  1411.24  11.33
549.5  12460.55  1417.11  11.37
551.0  12456.77  1417.89  11.38
552.4  12484.13  1422.77  11.40
553.9  12491.52  1423.88  11.40
555.3  12509.64  1430.44  11.43
556.8  12569.08  1441.85  11.47
558.2  12630.94  1452.83  11.50
559.6  12713.51  1468.08  11.55
561.1  12831.00  1488.07  11.60
562.5  12959.42  1508.92  11.64
564.0  13129.35  1539.14  11.72
565.4  13288.41  1570.40  11.82
566.8  13487.87  1606.84  11.91
568.3  13678.39  1643.58  12.02
569.7  13879.32  1685.68  12.15
571.1  14074.77  1722.32  12.24
572.6  14269.77  1769.47  12.40
574.0  14463.08  1811.92  12.53
575.4  14650.03  1857.38  12.68
576.9  14818.07  1906.21  12.86
578.3  14977.46  1951.95  13.03
579.7  15131.24  1998.20  13.21
581.1  15254.19  2050.51  13.44
582.6  15387.18  2100.16  13.65
584.0  15508.86  2150.53  13.87
585.4  15681.05  2208.63  14.08
586.8  15909.04  2272.69  14.29
588.3  16162.38  2336.88  14.46
589.7  16371.81  2400.21  14.66
591.1  16519.39  2458.57  14.88
592.5  16589.78  2518.32  15.18
594.0  16627.80  2571.06  15.46
595.4  16637.76  2623.85  15.77
596.8  16651.64  2678.10  16.08
598.2  16659.51  2737.65  16.43
599.6  16659.36  2793.39  16.77
601.0  16705.59  2860.40  17.12
602.4  16752.94  2926.16  17.47
603.9  16822.23  3006.64  17.87
605.3  16905.11  3089.39  18.27
606.7  16973.10  3178.08  18.72
608.1  17114.04  3287.45  19.21
609.5  17255.15  3397.37  19.69
610.9  17434.91  3518.89  20.18
612.3  17598.49  3641.82  20.69
613.7  17818.60  3783.37  21.23
615.1  17967.42  3908.95  21.76
616.5  18122.06  4036.68  22.27
617.9  18356.64  4196.84  22.86
619.3  18578.68  4358.32  23.46
620.7  18848.67  4536.86  24.07
622.1  19119.58  4702.22  24.59
623.5  19414.06  4880.39  25.14
624.9  19741.18  5068.07  25.67
626.3  19952.52  5238.69  26.26
627.7  19741.37  5301.31  26.85
629.1  19544.02  5357.24  27.41
630.5  19457.12  5421.08  27.86
631.9  19461.81  5507.60  28.30
633.3  19457.49  5597.24  28.77
634.7  19533.17  5722.47  29.30
636.1  19566.68  5803.65  29.66
637.5  19597.55  5878.82  30.00
638.9  19677.50  5956.48  30.27
640.2  19731.43  6069.03  30.76
641.6  19754.28  6189.46  31.33
643.0  19715.36  6290.92  31.91
644.4  19707.26  6424.99  32.60
645.8  19650.11  6561.74  33.39
647.2  19716.78  6746.39  34.22
648.5  19765.84  6933.16  35.08
649.9  19671.60  7088.20  36.03
651.3  19608.23  7261.04  37.03
652.7  19503.68  7399.42  37.94
654.1  19390.95  7321.29  37.76
655.5  19238.75  7185.79  37.35
656.8  19118.09  7070.75  36.98
658.2  19225.93  7060.13  36.72
659.6  19449.31  7123.77  36.63
660.9  19643.18  7186.97  36.59
662.3  19825.21  7243.67  36.54
663.7  20008.80  7293.72  36.45
665.0  20165.89  7342.06  36.41
666.4  20328.89  7404.54  36.42
667.8  20535.62  7485.68  36.45
669.1  20711.76  7559.68  36.50
670.5  20914.18  7661.28  36.63
671.9  21055.86  7755.54  36.83
673.2  21237.33  7899.43  37.20
674.6  21400.77  8055.60  37.64
676.0  21596.49  8250.76  38.20
677.3  21793.24  8471.90  38.87
678.7  21992.69  8726.10  39.68
680.0  22269.19  9041.04  40.60
681.4  22542.00  9414.03  41.76
682.8  22829.63  9835.28  43.08
684.1  23112.18  10297.56  44.55
685.5  23364.31  10773.45  46.11
686.8  23617.23  11262.86  47.69
688.2  23841.32  11710.37  49.12
689.5  23927.84  12083.81  50.50
690.9  23997.39  12430.45  51.80
692.2  24047.78  12728.24  52.93
693.6  24110.83  13019.72  54.00
694.9  24095.99  13241.79  54.95
696.2  24121.97  13451.90  55.77
697.6  24149.95  13633.42  56.45
698.9  24174.48  13825.50  57.19
700.3  24215.57  13999.70  57.81
701.6  24264.40  14169.03  58.39
703.0  24323.35  14318.30  58.87
704.3  24329.34  14425.78  59.29
705.6  24327.41  14537.02  59.76
707.0  24334.75  14634.09  60.14
708.3  24282.08  14690.44  60.50
709.6  24223.21  14743.54  60.87
711.0  24124.28  14763.27  61.20
712.3  24015.02  14789.29  61.58
713.6  23977.17  14842.29  61.90
714.9  23907.38  14875.70  62.22
716.3  23880.58  14927.94  62.51
717.6  23876.83  14996.62  62.81
718.9  23805.06  15008.24  63.05
720.2  23675.16  14966.52  63.22
721.6  23576.15  14949.60  63.41
722.9  23446.45  14931.02  63.68
724.2  23274.82  14894.87  64.00
725.5  23133.68  14887.21  64.35
726.8  23009.81  14861.94  64.59
728.1  22933.91  14861.81  64.80
729.5  22856.87  14873.49  65.07
730.8  22796.53  14900.03  65.36
732.1  22719.29  14924.87  65.69
733.4  22660.56  14961.06  66.02
734.7  22602.67  14974.91  66.25
736.0  22569.89  15030.60  66.60
737.3  22520.76  15063.72  66.89
738.6  22554.56  15168.75  67.25
739.9  22633.16  15313.50  67.66
741.2  22698.59  15425.96  67.96
742.5  22841.25  15607.47  68.33
743.8  23091.34  15874.32  68.75
745.1  23491.07  16234.31  69.11
746.4  23957.57  16638.44  69.45
747.7  24466.55  17026.23  69.59
749.0  24948.63  17379.53  69.66
750.3  25229.30  17550.57  69.56
751.6  25175.69  17524.43  69.61
752.9  24925.64  17392.82  69.78
754.2  24630.59  17261.92  70.08
755.4  24314.44  17141.29  70.50
756.7  24210.69  17174.91  70.94
758.0  24235.24  17289.89  71.34
759.3  24394.18  17516.96  71.81
760.6  24621.52  17781.87  72.22
761.9  24823.09  18039.93  72.67
763.1  24955.30  18203.62  72.94
764.4  25125.21  18392.60  73.20
765.7  25257.38  18565.30  73.50
767.0  25349.99  18715.05  73.83
768.2  25431.84  18846.01  74.10
769.5  25509.93  18984.44  74.42
770.8  25646.87  19146.79  74.66
772.0  25674.66  19247.93  74.97
773.3  25762.96  19377.09  75.21
774.6  25839.71  19507.83  75.50
775.8  25921.43  19615.40  75.67
777.1  25948.26  19703.03  75.93
778.4  25918.05  19745.91  76.19
779.6  25945.86  19832.35  76.44
780.9  25904.00  19893.87  76.80
782.1  25811.51  19912.35  77.15
783.4  25819.04  19987.42  77.41
784.6  25849.06  20088.04  77.71
785.9  26028.56  20359.60  78.22
787.1  26416.14  20740.61  78.51
788.4  26716.91  20989.84  78.56
789.6  26732.54  20917.33  78.25
790.9  26499.75  20692.30  78.08
792.1  26215.36  20525.93  78.30
793.4  25939.41  20405.83  78.67
794.6  25766.06  20310.15  78.83
795.8  25608.38  20259.28  79.11
797.1  25427.85  20189.17  79.40
798.3  25301.10  20167.68  79.71
799.5  25235.55  20182.41  79.98
800.8  25155.70  20187.20  80.25
802.0  25074.70  20183.31  80.49
803.2  24986.56  20164.62  80.70
804.5  24925.76  20171.56  80.93
805.7  24855.66  20151.05  81.07
806.9  24776.64  20153.75  81.34
808.1  24708.89  20155.48  81.57
809.4  24677.19  20187.04  81.80
810.6  24617.78  20202.61  82.07
811.8  24606.91  20259.23  82.33
813.0  24601.75  20323.99  82.61
814.2  24620.30  20403.80  82.87
815.4  24684.78  20512.55  83.10
816.6  24715.54  20573.39  83.24
817.9  24752.29  20625.57  83.33
819.1  24717.85  20612.87  83.39
820.3  24615.89  20585.38  83.63
821.5  24558.22  20577.08  83.79
822.7  24525.20  20580.88  83.92
823.9  24512.51  20621.94  84.13
825.1  24512.73  20651.16  84.25
826.3  24527.23  20704.11  84.41
827.5  24554.23  20763.28  84.56
828.7  24585.24  20825.22  84.71
829.9  24620.63  20891.45  84.85
831.0  24677.45  20970.97  84.98
832.2  24735.00  21055.18  85.12
833.4  24800.15  21133.51  85.22
834.6  24827.34  21208.13  85.42
835.8  24886.58  21289.59  85.55
837.0  24941.18  21392.73  85.77
838.1  25036.55  21513.67  85.93
839.3  25073.20  21603.32  86.16
840.5  25138.07  21693.31  86.30
841.7  25214.76  21840.14  86.62
842.9  25311.78  21982.18  86.85
844.0  25352.29  22089.52  87.13
845.2  25454.19  22216.79  87.28
846.4  25527.43  22338.14  87.51
847.5  25656.16  22503.12  87.71
848.7  25745.00  22626.54  87.89
849.9  25879.71  22744.28  87.88
851.0  25913.04  22779.17  87.91
852.2  25966.07  22861.84  88.05
853.3  25941.98  22873.87  88.17
854.5  25934.86  22895.40  88.28
855.6  25916.94  22922.04  88.44
856.8  25944.85  22981.86  88.58
857.9  25943.54  23009.96  88.69
859.1  25996.60  23101.20  88.86
860.2  26027.46  23133.84  88.88
861.4  26023.97  23209.96  89.19
862.5  26059.24  23259.92  89.26
863.7  26115.12  23336.67  89.36
864.8  26101.25  23384.06  89.59
865.9  26082.46  23382.34  89.65
867.1  26099.25  23424.84  89.75
868.2  26099.69  23472.57  89.93
869.3  26128.19  23499.73  89.94
870.5  26099.47  23501.21  90.04
871.6  26087.08  23530.75  90.20
872.7  26136.21  23584.84  90.24
873.9  26148.82  23630.89  90.37
875.0  26142.73  23639.62  90.43
876.1  26142.29  23653.86  90.48
877.2  26184.05  23699.06  90.51
878.3  26169.01  23711.27  90.61
879.4  26191.11  23750.72  90.68
880.5  26214.48  23783.47  90.73
881.7  26220.35  23786.19  90.72
882.8  26271.44  23818.75  90.66
883.9  26272.50  23802.88  90.60
885.0  26275.91  23788.95  90.54
886.1  26278.81  23771.72  90.46
887.2  26194.66  23664.10  90.34
888.3  26154.69  23602.32  90.24
889.4  26083.75  23520.66  90.17
890.5  26060.47  23505.45  90.20
891.6  26043.45  23470.53  90.12
892.7  26025.13  23469.21  90.18
893.8  26046.70  23496.23  90.21
894.9  26070.72  23503.05  90.15
896.0  26059.51  23477.27  90.09
897.0  26054.12  23499.79  90.20
898.1  26079.30  23525.86  90.21
899.2  26095.96  23510.65  90.09
900.3  26052.56  23482.51  90.14
901.4  26029.33  23435.51  90.04
902.4  26018.83  23452.77  90.14
903.5  26017.27  23392.25  89.91
904.6  26012.16  23395.19  89.94
905.7  26050.43  23392.61  89.80
906.7  26024.14  23393.78  89.89
907.8  26076.86  23404.13  89.75
908.9  26057.48  23364.76  89.67
909.9  26017.06  23329.78  89.67
911.0  26009.49  23272.54  89.48
912.1  25979.15  23234.20  89.43
913.1  25944.88  23178.48  89.34
914.2  25856.17  23107.25  89.37
915.2  25844.13  23090.22  89.34
916.3  25883.78  23057.38  89.08
917.3  25847.25  23000.03  88.98
918.4  25819.06  22919.53  88.77
919.4  25792.96  22877.89  88.70
920.5  25804.34  22834.81  88.49
921.5  25824.68  22804.15  88.30
922.6  25820.42  22712.28  87.96
923.6  25802.74  22688.39  87.93
924.7  25837.63  22645.23  87.64
925.7  25830.51  22584.46  87.43
926.7  25889.20  22513.36  86.96
927.8  25949.67  22453.14  86.53
928.8  26061.51  22444.16  86.12
929.9  26114.55  22439.67  85.93
930.9  26214.58  22451.37  85.64
931.9  26363.30  22476.08  85.26
932.9  26568.63  22532.93  84.81
934.0  26604.58  22444.48  84.36
935.0  26610.78  22371.04  84.07
936.0  26639.41  22293.87  83.69
937.0  26632.91  22188.14  83.31
938.1  26589.57  22085.51  83.06
939.1  26594.73  21990.42  82.69
940.1  26647.30  21942.65  82.34
941.1  26757.94  21959.14  82.07
942.1  26950.86  21960.61  81.48
943.1  27064.46  21971.16  81.18
944.1  27200.04  21965.75  80.76
945.2  27250.86  21870.13  80.25
946.2  27341.46  21802.81  79.74
947.2  27385.31  21710.30  79.28
948.2  27528.14  21694.36  78.81
949.2  27562.84  21578.81  78.29
950.2  27601.23  21464.65  77.77
951.2  27696.06  21380.02  77.20
952.2  27776.58  21299.25  76.68
953.2  27874.44  21219.08  76.12
954.2  27994.28  21139.17  75.51
955.2  28013.52  20997.47  74.95
956.2  27975.49  20898.38  74.70
957.2  28074.45  20826.87  74.18
958.2  28163.05  20810.54  73.89
959.2  28188.45  20745.90  73.60
960.1  28244.69  20705.40  73.31
961.1  28322.00  20724.21  73.17
962.1  28304.06  20669.63  73.03
963.1  28357.97  20635.92  72.77
964.1  28464.51  20672.26  72.62
965.1  28543.56  20701.75  72.53
966.1  28584.14  20716.45  72.48
967.0  28655.80  20710.13  72.27
968.0  28697.14  20745.93  72.29
969.0  28718.80  20766.56  72.31
970.0  28760.47  20801.12  72.33
971.0  28834.42  20822.45  72.21
971.9  28848.78  20915.66  72.50
972.9  28890.31  20886.27  72.30
973.9  28948.56  20940.53  72.34
974.9  29046.70  21025.31  72.38
975.8  29063.68  21044.68  72.41
976.8  29052.58  21082.25  72.57
977.8  29165.54  21153.38  72.53
978.8  29197.88  21238.12  72.74
979.7  29189.32  21351.72  73.15
981.4  29653.05  18652.73  62.90
985.3  29580.67  18955.58  64.08
989.3  29694.74  19432.08  65.44
993.3  29811.28  19855.14  66.60
997.2  29873.76  20128.18  67.38
1001.2  29847.48  20355.36  68.20
1005.2  29766.32  20524.33  68.95
1009.1  29802.16  20762.99  69.67
1013.1  29912.80  21103.61  70.55
1017.1  29980.27  21457.15  71.57
1021.0  29997.45  21738.34  72.47
1025.0  29986.05  22001.50  73.37
1029.0  29874.56  22170.82  74.21
1032.9  29757.39  22327.37  75.03
1036.9  29719.10  22543.66  75.86
1040.9  29786.91  22825.73  76.63
1044.8  29914.06  23160.51  77.42
1048.8  30017.23  23454.80  78.14
1052.7  30081.05  23703.44  78.80
1056.7  30106.96  23872.81  79.29
1060.7  30124.55  24002.82  79.68
1064.6  30126.20  24106.81  80.02
1068.6  30068.46  24120.30  80.22
1072.5  30024.99  24096.12  80.25
1076.5  29992.38  24065.46  80.24
1080.4  29983.51  24019.39  80.11
1084.4  30049.89  23985.06  79.82
1088.3  30134.74  23926.61  79.40
1092.3  30115.74  23767.59  78.92
1096.2  30104.84  23598.42  78.39
1100.2  30142.18  23445.76  77.78
1104.1  30082.71  23197.97  77.11
1108.1  30052.27  22981.46  76.47
1112.0  29977.43  22731.05  75.83
1116.0  29868.35  22396.96  74.99
1119.9  29779.89  22035.04  73.99
1123.9  29822.35  21698.94  72.76
1127.8  29798.40  21178.88  71.07
1131.8  29786.58  20511.77  68.86
1135.7  29821.64  19738.07  66.19
1139.6  29831.38  18871.60  63.26
1143.6  29819.95  18021.09  60.43
1147.5  29803.64  17291.16  58.02
1151.4  29713.98  16654.97  56.05
1155.4  29731.43  16256.41  54.68
1159.3  29760.66  16016.58  53.82
1163.2  29674.15  15791.55  53.22
1167.2  29672.28  15684.56  52.86
1171.1  29681.80  15612.22  52.60
1175.0  29651.52  15526.78  52.36
1179.0  29638.87  15456.36  52.15
1182.9  29697.98  15420.62  51.92
1186.8  29706.14  15359.56  51.71
1190.7  29571.10  15227.05  51.49
1194.7  29411.94  15093.66  51.32
1198.6  29289.65  14995.37  51.20
1202.5  29196.66  14946.61  51.19
1206.4  29112.98  14934.67  51.30
1210.3  29056.59  14942.28  51.42
1214.2  29008.58  14976.37  51.63
1218.2  28915.95  15017.56  51.94
1222.1  28833.10  15067.18  52.26
1226.0  28785.60  15131.02  52.56
1229.9  28734.48  15189.80  52.86
1233.8  28673.70  15241.71  53.16
1237.7  28644.25  15301.42  53.42
1241.6  28596.57  15340.54  53.64
1245.5  28494.07  15348.69  53.87
1249.4  28422.55  15360.36  54.04
1253.3  28356.92  15371.50  54.21
1257.2  28323.43  15385.03  54.32
1261.1  28264.79  15364.40  54.36
1265.0  28184.91  15326.10  54.38
1268.9  28067.43  15252.56  54.34
1272.8  28106.70  15251.30  54.26
1276.7  28238.01  15283.97  54.13
1280.6  28297.17  15255.59  53.91
1284.5  28250.81  15144.92  53.61
1288.4  28234.52  15028.36  53.23
1292.3  28165.50  14850.00  52.72
1296.2  28076.33  14639.32  52.14
1300.1  27971.71  14400.50  51.48
1303.9  27830.79  14105.69  50.68
1307.8  27679.51  13792.28  49.83
1311.7  27513.83  13449.88  48.88
1315.6  27356.90  13095.09  47.87
1319.5  27190.78  12717.37  46.77
1323.3  27036.43  12326.31  45.59
1327.2  26898.46  11947.93  44.42
1331.1  26745.75  11557.14  43.21
1335.0  26551.82  11155.15  42.01
1338.8  26417.20  10798.41  40.88
1342.7  26306.22  10464.18  39.78
1346.5  26068.84  10090.77  38.71
1350.4  25867.11  9753.53  37.71
1354.3  25587.95  9406.69  36.76
1358.1  25293.52  9073.54  35.87
1362.0  25095.25  8793.15  35.04
1365.8  25024.00  8555.62  34.19
1369.7  25106.98  8340.45  33.22
1373.5  25078.13  8019.21  31.98
1377.4  24917.97  7567.02  30.37
1381.2  24782.40  7044.99  28.43
1385.1  24754.66  6539.57  26.42
1389.0  24692.16  6044.53  24.48
1392.8  24567.88  5550.46  22.59
1396.6  24460.52  5116.32  20.92
1400.5  24320.99  4740.88  19.49
1404.3  24225.89  4440.10  18.33
1408.2  24204.64  4221.10  17.44
1412.0  24174.50  4051.63  16.76
1415.8  24201.79  3931.39  16.24
1419.6  24176.54  3833.75  15.86
1423.5  24162.30  3758.58  15.56
1427.3  24156.22  3704.95  15.34
1431.1  24149.78  3671.18  15.20
1434.9  24082.82  3629.23  15.07
1438.8  24045.91  3598.28  14.96
1442.6  24021.66  3582.02  14.91
1446.4  23948.95  3563.53  14.88
1450.2  23899.20  3552.71  14.87
1454.0  23823.72  3544.64  14.88
1457.8  23805.13  3547.40  14.90
1461.6  23794.65  3556.67  14.95
1465.4  23719.51  3562.75  15.02
1469.2  23598.58  3567.96  15.12
1473.0  23505.47  3590.83  15.28
