/*** Spectra Vista SIG Data ***/
name= GS1.sig
comm= Averaged Ref/Tar of files: GD4S1,GD4S2,GD4S3
data=
346.4  1.00  101.07  10107.00
347.9  1.00  95.38  9538.33
349.5  1.00  98.59  9859.33
351.1  1.00  98.59  9859.00
352.6  1.00  103.73  10373.33
354.2  1.00  102.54  10253.67
355.7  1.00  107.76  10776.00
357.3  1.00  114.66  11466.00
358.8  1.00  115.57  11557.00
360.4  1.00  119.60  11959.67
361.9  1.00  122.58  12258.33
363.5  1.00  123.27  12326.67
365.1  1.00  127.14  12714.33
366.6  1.00  127.05  12705.33
368.2  1.00  122.22  12221.67
369.7  1.00  121.89  12189.33
371.3  1.00  133.90  13389.67
372.8  1.00  132.36  13235.67
374.4  1.00  136.17  13617.33
375.9  1.00  138.58  13857.67
377.4  1.00  139.21  13920.67
379.0  1.00  148.52  14851.67
380.5  1.00  143.62  14362.00
382.1  1.00  144.99  14499.00
383.6  1.00  147.04  14704.33
385.2  1.00  150.33  15033.33
386.7  1.00  160.65  16064.67
388.3  1.00  161.24  16124.00
389.8  1.00  173.85  17385.33
391.3  1.00  177.87  17787.00
392.9  1.00  193.46  19346.00
394.4  1.00  204.56  20455.67
395.9  1.00  215.61  21561.33
397.5  1.00  226.96  22696.00
399.0  1.00  231.13  23113.33
400.6  1.00  233.57  23357.00
402.1  1.00  233.23  23323.33
403.6  1.00  235.91  23591.33
405.1  1.00  239.47  23946.67
406.7  1.00  245.20  24520.33
408.2  1.00  253.04  25304.33
409.7  1.00  264.62  26461.67
411.3  1.00  274.79  27479.00
412.8  1.00  289.46  28945.67
414.3  1.00  300.23  30023.00
415.8  1.00  311.67  31166.67
417.4  1.00  317.09  31709.33
418.9  1.00  330.25  33024.67
420.4  1.00  335.99  33599.00
421.9  1.00  341.38  34138.00
423.5  1.00  344.65  34464.67
425.0  1.00  349.41  34941.00
426.5  1.00  355.47  35546.67
428.0  1.00  358.50  35850.33
429.5  1.00  367.61  36761.33
431.1  1.00  379.52  37951.67
432.6  1.00  390.40  39039.67
434.1  1.00  402.45  40245.33
435.6  1.00  417.44  41744.33
437.1  1.00  427.70  42770.00
438.6  1.00  444.09  44409.00
440.1  1.00  453.86  45386.00
441.6  1.00  474.19  47419.00
443.1  1.00  490.32  49032.00
444.7  1.00  513.48  51347.67
446.2  1.00  530.74  53074.00
447.7  1.00  554.62  55462.33
449.2  1.00  578.30  57830.33
450.7  1.00  592.94  59294.00
452.2  1.00  615.96  61596.33
453.7  1.00  637.72  63772.33
455.2  1.00  659.60  65960.33
456.7  1.00  690.39  69039.00
458.2  1.00  714.38  71438.00
459.7  1.00  747.13  74713.33
461.2  1.00  774.72  77471.67
462.7  1.00  799.77  79977.00
464.2  1.00  822.77  82277.00
465.7  1.00  852.64  85263.67
467.2  1.00  873.18  87318.00
468.7  1.00  898.93  89893.33
470.2  1.00  923.28  92328.00
471.7  1.00  944.62  94461.67
473.2  1.00  965.84  96583.67
474.6  1.00  994.16  99415.67
476.1  1.00  1007.42  100742.33
477.6  1.00  1022.34  102234.00
479.1  1.00  1034.59  103459.33
480.6  1.00  1049.07  104907.33
482.1  1.00  1068.31  106831.33
483.6  1.00  1091.18  109118.33
485.1  1.00  1121.24  112124.33
486.6  1.00  1162.70  116270.00
488.0  1.00  1202.07  120206.67
489.5  1.00  1252.60  125259.67
491.0  1.00  1312.15  131215.00
492.5  1.00  1369.87  136987.00
494.0  1.00  1439.24  143923.67
495.4  1.00  1507.88  150788.00
496.9  1.00  1585.61  158561.00
498.4  1.00  1668.58  166858.33
499.9  1.00  1758.49  175849.00
501.4  1.00  1850.63  185063.00
502.8  1.00  1949.99  194998.67
504.3  1.00  2048.40  204840.00
505.8  1.00  2158.64  215864.33
507.2  1.00  2260.60  226060.33
508.7  1.00  2363.33  236332.67
510.2  1.00  2462.81  246281.33
511.6  1.00  2558.82  255882.33
513.1  1.00  2665.87  266587.00
514.6  1.00  2776.48  277648.00
516.0  1.00  2885.99  288599.00
517.5  1.00  3012.28  301227.67
519.0  1.00  3142.24  314224.00
520.5  1.00  3275.19  327519.00
521.9  1.00  3414.42  341442.00
523.4  1.00  3564.93  356493.33
524.8  1.00  3710.17  371017.00
526.3  1.00  3859.32  385932.00
527.8  1.00  4009.73  400972.67
529.2  1.00  4149.29  414929.00
530.7  1.00  4289.16  428916.00
532.1  1.00  4419.59  441959.33
533.6  1.00  4559.78  455978.00
535.0  1.00  4698.08  469808.00
536.5  1.00  4828.17  482816.67
538.0  1.00  4967.02  496701.67
539.4  1.00  5094.16  509416.00
540.9  1.00  5239.05  523904.67
542.3  1.00  5366.70  536670.33
543.8  1.00  5469.84  546984.33
545.2  1.00  5530.71  553071.00
546.6  1.00  5568.16  556816.33
548.1  1.00  5606.48  560648.00
549.5  1.00  5640.22  564022.33
551.0  1.00  5667.14  566714.33
552.4  1.00  5700.30  570029.67
553.9  1.00  5723.94  572394.33
555.3  1.00  5754.76  575476.00
556.8  1.00  5794.26  579426.00
558.2  1.00  5831.33  583133.00
559.6  1.00  5880.04  588003.67
561.1  1.00  5941.87  594186.67
562.5  1.00  6010.66  601065.67
564.0  1.00  6093.16  609316.33
565.4  1.00  6171.12  617112.00
566.8  1.00  6257.81  625781.00
568.3  1.00  6338.22  633822.33
569.7  1.00  6420.10  642009.67
571.1  1.00  6486.70  648670.33
572.6  1.00  6555.60  655560.00
574.0  1.00  6617.38  661738.00
575.4  1.00  6675.53  667552.67
576.9  1.00  6726.49  672648.67
578.3  1.00  6775.58  677558.00
579.7  1.00  6820.22  682021.67
581.1  1.00  6851.36  685135.67
582.6  1.00  6892.95  689295.00
584.0  1.00  6926.18  692618.00
585.4  1.00  6978.92  697891.67
586.8  1.00  7055.47  705546.67
588.3  1.00  7140.12  714012.00
589.7  1.00  7213.44  721344.00
591.1  1.00  7256.63  725662.67
592.5  1.00  7269.57  726956.67
594.0  1.00  7269.46  726946.33
595.4  1.00  7256.49  725649.33
596.8  1.00  7246.67  724666.67
598.2  1.00  7231.67  723167.33
599.6  1.00  7207.46  720746.33
601.0  1.00  7207.09  720708.67
602.4  1.00  7200.59  720058.67
603.9  1.00  7208.78  720877.67
605.3  1.00  7205.86  720586.00
606.7  1.00  7200.24  720024.00
608.1  1.00  7208.15  720815.00
609.5  1.00  7221.04  722104.33
610.9  1.00  7250.68  725067.67
612.3  1.00  7263.94  726394.00
613.7  1.00  7293.63  729363.00
615.1  1.00  7287.62  728762.33
616.5  1.00  7286.49  728648.67
617.9  1.00  7334.11  733411.00
619.3  1.00  7384.50  738449.67
620.7  1.00  7469.70  746969.67
622.1  1.00  7406.33  740632.67
623.5  1.00  7295.27  729526.67
624.9  1.00  7236.08  723607.67
626.3  1.00  7221.19  722119.00
627.7  1.00  7138.19  713819.33
629.1  1.00  7120.56  712055.67
630.5  1.00  7149.80  714979.67
631.9  1.00  7212.58  721257.67
633.3  1.00  7263.29  726329.00
634.7  1.00  7321.64  732163.67
636.1  1.00  7324.41  732441.00
637.5  1.00  7333.82  733382.33
638.9  1.00  7347.54  734753.67
640.2  1.00  7337.23  733723.33
641.6  1.00  7305.48  730548.00
643.0  1.00  7245.50  724550.00
644.4  1.00  7195.54  719554.00
645.8  1.00  7128.61  712861.00
647.2  1.00  7102.73  710273.00
648.5  1.00  7079.22  707922.33
649.9  1.00  7024.65  702465.00
651.3  1.00  6989.04  698904.00
652.7  1.00  6925.80  692580.00
654.1  1.00  6687.92  668792.00
655.5  1.00  6399.74  639974.33
656.8  1.00  6138.21  613821.33
658.2  1.00  5973.68  597368.33
659.6  1.00  5847.21  584721.33
660.9  1.00  5719.80  571979.67
662.3  1.00  5588.40  558840.00
663.7  1.00  5448.24  544824.00
665.0  1.00  5302.32  530232.33
666.4  1.00  5183.70  518369.67
667.8  1.00  5092.29  509229.00
669.1  1.00  4998.53  499852.67
670.5  1.00  4935.23  493522.67
671.9  1.00  4874.51  487451.00
673.2  1.00  4854.56  485455.67
674.6  1.00  4859.66  485966.33
676.0  1.00  4891.93  489193.00
677.3  1.00  4951.74  495174.00
678.7  1.00  5046.73  504673.33
680.0  1.00  5200.91  520091.00
681.4  1.00  5420.75  542075.33
682.8  1.00  5711.77  571176.67
684.1  1.00  6084.00  608400.33
685.5  1.00  6528.07  652807.33
686.8  1.00  7048.06  704806.33
688.2  1.00  7627.95  762795.00
689.5  1.00  8224.82  822482.00
690.9  1.00  8862.48  886248.00
692.2  1.00  9508.10  950810.00
693.6  1.00  10172.71  1017271.33
694.9  1.00  10779.40  1077939.67
696.2  1.00  11376.72  1137672.00
697.6  1.00  11938.78  1193878.00
698.9  1.00  12487.55  1248755.00
700.3  1.00  13008.95  1300895.33
701.6  1.00  13493.76  1349376.33
703.0  1.00  13934.66  1393466.00
704.3  1.00  14288.76  1428875.67
705.6  1.00  14624.43  1462443.33
707.0  1.00  14932.37  1493237.33
708.3  1.00  15159.30  1515929.67
709.6  1.00  15368.27  1536827.33
711.0  1.00  15516.60  1551660.33
712.3  1.00  15661.10  1566109.67
713.6  1.00  15821.90  1582190.33
714.9  1.00  15957.21  1595721.33
716.3  1.00  16088.68  1608868.33
717.6  1.00  16243.16  1624316.33
718.9  1.00  16314.62  1631461.67
720.2  1.00  16323.83  1632383.00
721.6  1.00  16351.71  1635171.33
722.9  1.00  16363.61  1636360.67
724.2  1.00  16347.32  1634732.00
725.5  1.00  16346.82  1634682.33
726.8  1.00  16312.94  1631293.67
728.1  1.00  16307.19  1630718.67
729.5  1.00  16303.55  1630354.67
730.8  1.00  16300.17  1630017.33
732.1  1.00  16286.38  1628637.67
733.4  1.00  16287.05  1628705.33
734.7  1.00  16268.04  1626804.33
736.0  1.00  16279.24  1627924.00
737.3  1.00  16289.18  1628917.67
738.6  1.00  16354.99  1635498.67
739.9  1.00  16492.82  1649282.00
741.2  1.00  16562.00  1656200.00
742.5  1.00  16717.77  1671776.67
743.8  1.00  16959.64  1695963.67
745.1  1.00  17294.13  1729413.00
746.4  1.00  17642.35  1764235.33
747.7  1.00  17997.56  1799756.00
749.0  1.00  18347.20  1834720.33
750.3  1.00  18503.60  1850360.33
751.6  1.00  18462.29  1846228.67
752.9  1.00  18312.85  1831285.33
754.2  1.00  18135.99  1813599.00
755.4  1.00  17936.13  1793613.33
756.7  1.00  17915.57  1791556.67
758.0  1.00  17974.16  1797415.67
759.3  1.00  18145.48  1814548.00
760.6  1.00  18374.46  1837446.00
761.9  1.00  18568.25  1856824.67
763.1  1.00  18674.30  1867429.67
764.4  1.00  18810.20  1881020.33
765.7  1.00  18919.77  1891976.67
767.0  1.00  19002.14  1900214.33
768.2  1.00  19074.50  1907449.67
769.5  1.00  19152.13  1915212.67
770.8  1.00  19254.97  1925497.33
772.0  1.00  19294.73  1929472.67
773.3  1.00  19366.50  1936650.33
774.6  1.00  19449.56  1944956.33
775.8  1.00  19501.78  1950177.67
777.1  1.00  19520.01  1952000.67
778.4  1.00  19495.81  1949581.00
779.6  1.00  19523.19  1952319.00
780.9  1.00  19525.33  1952533.33
782.1  1.00  19466.01  1946600.67
783.4  1.00  19487.66  1948766.00
784.6  1.00  19528.21  1952821.33
785.9  1.00  19716.18  1971617.67
787.1  1.00  20008.13  2000813.00
788.4  1.00  20175.16  2017515.67
789.6  1.00  20056.04  2005604.00
790.9  1.00  19805.67  1980567.00
792.1  1.00  19597.43  1959742.67
793.4  1.00  19409.62  1940962.33
794.6  1.00  19261.39  1926139.00
795.8  1.00  19165.42  1916541.67
797.1  1.00  19043.59  1904359.00
798.3  1.00  18962.52  1896251.67
799.5  1.00  18922.74  1892274.33
800.8  1.00  18869.30  1886929.67
802.0  1.00  18804.40  1880440.33
803.2  1.00  18708.58  1870858.33
804.5  1.00  18654.41  1865440.67
805.7  1.00  18587.48  1858748.00
806.9  1.00  18523.54  1852354.00
808.1  1.00  18495.08  1849508.33
809.4  1.00  18474.89  1847489.00
810.6  1.00  18431.14  1843114.00
811.8  1.00  18433.27  1843327.00
813.0  1.00  18442.29  1844228.67
814.2  1.00  18454.90  1845490.33
815.4  1.00  18491.90  1849190.33
816.6  1.00  18491.41  1849141.33
817.9  1.00  18472.60  1847260.00
819.1  1.00  18395.54  1839554.33
820.3  1.00  18305.49  1830549.00
821.5  1.00  18239.04  1823904.33
822.7  1.00  18203.97  1820396.67
823.9  1.00  18167.18  1816718.33
825.1  1.00  18125.25  1812525.33
826.3  1.00  18116.10  1811609.67
827.5  1.00  18087.53  1808753.00
828.7  1.00  18058.21  1805821.00
829.9  1.00  18049.18  1804918.33
831.0  1.00  18065.09  1806509.00
832.2  1.00  18073.36  1807336.00
833.4  1.00  18081.48  1808147.67
834.6  1.00  18113.75  1811375.33
835.8  1.00  18123.84  1812384.00
837.0  1.00  18189.60  1818960.33
838.1  1.00  18248.69  1824869.00
839.3  1.00  18279.38  1827938.00
840.5  1.00  18327.77  1832777.00
841.7  1.00  18430.88  1843088.33
842.9  1.00  18523.42  1852342.00
844.0  1.00  18558.00  1855800.00
845.2  1.00  18631.88  1863188.00
846.4  1.00  18674.81  1867481.00
847.5  1.00  18777.51  1877751.33
848.7  1.00  18847.84  1884783.67
849.9  1.00  18910.68  1891067.67
851.0  1.00  18909.15  1890915.00
852.2  1.00  18925.75  1892574.67
853.3  1.00  18890.02  1889002.00
854.5  1.00  18878.19  1887819.00
855.6  1.00  18886.76  1888676.33
856.8  1.00  18933.44  1893344.00
857.9  1.00  18923.26  1892326.00
859.1  1.00  18983.57  1898357.33
860.2  1.00  18994.91  1899490.67
861.4  1.00  19004.87  1900487.00
862.5  1.00  19041.02  1904101.67
863.7  1.00  19081.17  1908117.00
864.8  1.00  19092.59  1909259.33
865.9  1.00  19080.13  1908013.00
867.1  1.00  19087.18  1908718.00
868.2  1.00  19099.91  1909990.67
869.3  1.00  19095.53  1909553.33
870.5  1.00  19060.94  1906093.67
871.6  1.00  19078.51  1907851.33
872.7  1.00  19123.08  1912308.33
873.9  1.00  19126.45  1912645.00
875.0  1.00  19097.23  1909723.33
876.1  1.00  19069.34  1906933.67
877.2  1.00  19079.97  1907997.00
878.3  1.00  19038.47  1903847.33
879.4  1.00  19047.99  1904798.67
880.5  1.00  19042.90  1904289.67
881.7  1.00  19013.63  1901362.67
882.8  1.00  19018.47  1901847.33
883.9  1.00  18992.10  1899210.00
885.0  1.00  18920.90  1892090.33
886.1  1.00  18878.04  1887803.67
887.2  1.00  18782.57  1878256.67
888.3  1.00  18703.20  1870320.00
889.4  1.00  18608.03  1860803.00
890.5  1.00  18557.51  1855750.67
891.6  1.00  18508.16  1850815.67
892.7  1.00  18479.82  1847982.00
893.8  1.00  18506.75  1850675.00
894.9  1.00  18494.95  1849494.67
896.0  1.00  18441.88  1844188.33
897.0  1.00  18431.76  1843176.33
898.1  1.00  18404.11  1840411.00
899.2  1.00  18403.54  1840353.67
900.3  1.00  18325.52  1832552.33
901.4  1.00  18246.61  1824661.00
902.4  1.00  18244.27  1824427.00
903.5  1.00  18194.82  1819482.00
904.6  1.00  18174.62  1817462.00
905.7  1.00  18143.50  1814350.33
906.7  1.00  18103.52  1810352.00
907.8  1.00  18112.24  1811224.00
908.9  1.00  18040.86  1804086.33
909.9  1.00  17991.64  1799164.00
911.0  1.00  17928.11  1792811.00
912.1  1.00  17859.05  1785905.00
913.1  1.00  17772.14  1777214.33
914.2  1.00  17694.78  1769477.67
915.2  1.00  17671.64  1767164.33
916.3  1.00  17607.60  1760760.00
917.3  1.00  17555.45  1755545.00
918.4  1.00  17433.17  1743316.67
919.4  1.00  17362.00  1736199.67
920.5  1.00  17304.82  1730481.67
921.5  1.00  17252.61  1725261.00
922.6  1.00  17162.36  1716235.67
923.6  1.00  17101.79  1710179.00
924.7  1.00  17038.03  1703803.33
925.7  1.00  16957.53  1695752.67
926.7  1.00  16880.64  1688064.00
927.8  1.00  16821.76  1682175.67
928.8  1.00  16799.92  1679992.00
929.9  1.00  16747.98  1674798.00
930.9  1.00  16766.98  1676698.00
931.9  1.00  16765.18  1676518.00
932.9  1.00  16820.60  1682059.67
934.0  1.00  16712.28  1671228.33
935.0  1.00  16640.03  1664003.33
936.0  1.00  16551.41  1655141.33
937.0  1.00  16437.30  1643730.33
938.1  1.00  16353.50  1635350.33
939.1  1.00  16263.68  1626368.33
940.1  1.00  16207.71  1620770.67
941.1  1.00  16198.29  1619829.33
942.1  1.00  16185.10  1618509.67
943.1  1.00  16162.58  1616258.00
944.1  1.00  16166.16  1616616.33
945.2  1.00  16061.47  1606147.33
946.2  1.00  15998.11  1599810.67
947.2  1.00  15923.38  1592338.33
948.2  1.00  15890.95  1589094.67
949.2  1.00  15784.93  1578492.67
950.2  1.00  15694.79  1569478.67
951.2  1.00  15588.05  1558804.67
952.2  1.00  15528.93  1552893.00
953.2  1.00  15471.67  1547167.00
954.2  1.00  15432.78  1543278.00
955.2  1.00  15303.10  1530310.33
956.2  1.00  15183.26  1518326.33
957.2  1.00  15160.36  1516036.33
958.2  1.00  15094.22  1509422.33
959.2  1.00  15071.58  1507158.00
960.1  1.00  15038.87  1503887.00
961.1  1.00  15047.04  1504704.33
962.1  1.00  14993.38  1499338.00
963.1  1.00  14975.87  1497587.33
964.1  1.00  15009.24  1500924.00
965.1  1.00  15018.62  1501861.67
966.1  1.00  15000.93  1500093.33
967.0  1.00  15056.52  1505651.67
968.0  1.00  15036.30  1503629.67
969.0  1.00  15037.07  1503706.67
970.0  1.00  15071.10  1507110.00
971.0  1.00  15056.33  1505632.67
971.9  1.00  15080.56  1508056.00
972.9  1.00  15021.33  1502132.67
973.9  1.00  14977.08  1497708.33
974.9  1.00  14942.15  1494215.00
975.8  1.00  14932.98  1493297.67
976.8  1.00  14938.75  1493875.33
977.8  1.00  14849.84  1484984.00
978.8  1.00  14891.20  1489120.00
979.7  1.00  14844.02  1484401.67
980.7  1.00  14903.92  1490392.33
981.7  1.00  15031.62  1503162.00
982.6  1.00  15011.13  1501112.67
983.6  1.00  15200.25  1520025.33
984.6  1.00  15416.39  1541639.00
985.5  1.00  15603.94  1560393.67
986.5  1.00  15914.39  1591439.00
987.5  1.00  16143.50  1614350.00
988.4  1.00  16332.21  1633221.33
989.4  1.00  16944.61  1694461.33
990.4  1.00  17399.63  1739962.67
991.3  1.00  17610.32  1761032.33
992.3  1.00  17972.11  1797210.67
993.2  1.00  18699.59  1869958.67
994.2  1.00  18722.93  1872292.67
995.2  1.00  18949.92  1894992.33
996.1  1.00  19356.73  1935672.67
997.1  1.00  19369.19  1936918.67
998.0  1.00  18865.84  1886584.00
999.0  1.00  19271.07  1927106.67
1000.0  1.00  18950.76  1895075.67
1000.9  1.00  19569.57  1956956.67
1001.9  1.00  19028.41  1902841.33
1002.8  1.00  19178.80  1917880.33
1003.8  1.00  18853.02  1885302.33
1004.8  1.00  19288.82  1928881.67
961.5  1.00  17305.90  1730590.00
965.5  1.00  17400.38  1740038.33
969.5  1.00  17142.37  1714237.33
973.4  1.00  16528.60  1652860.33
977.4  1.00  15898.60  1589859.67
981.4  1.00  15572.63  1557263.33
985.3  1.00  15454.68  1545467.67
989.3  1.00  15505.61  1550561.00
993.3  1.00  15648.47  1564847.00
997.2  1.00  15774.03  1577403.00
1001.2  1.00  15886.04  1588604.33
1005.2  1.00  16010.07  1601007.33
1009.1  1.00  16210.85  1621084.67
1013.1  1.00  16450.64  1645063.67
1017.1  1.00  16682.04  1668204.00
1021.0  1.00  16865.86  1686585.67
1025.0  1.00  17050.57  1705056.67
1029.0  1.00  17165.55  1716555.00
1032.9  1.00  17274.53  1727453.00
1036.9  1.00  17453.49  1745349.33
1040.9  1.00  17684.06  1768406.00
1044.8  1.00  17936.78  1793678.33
1048.8  1.00  18162.94  1816293.67
1052.7  1.00  18353.12  1835312.33
1056.7  1.00  18484.32  1848431.67
1060.7  1.00  18579.15  1857915.33
1064.6  1.00  18648.23  1864823.00
1068.6  1.00  18648.48  1864848.33
1072.5  1.00  18622.51  1862250.67
1076.5  1.00  18594.57  1859457.00
1080.4  1.00  18539.79  1853979.33
1084.4  1.00  18481.53  1848152.67
1088.3  1.00  18421.05  1842105.00
1092.3  1.00  18293.27  1829327.00
1096.2  1.00  18151.67  1815166.67
1100.2  1.00  18023.53  1802353.33
1104.1  1.00  17836.19  1783619.33
1108.1  1.00  17672.97  1767297.00
1112.0  1.00  17464.47  1746447.33
1116.0  1.00  17194.89  1719488.67
1119.9  1.00  16909.10  1690909.67
1123.9  1.00  16638.39  1663838.67
1127.8  1.00  16231.68  1623168.00
1131.8  1.00  15709.90  1570990.00
1135.7  1.00  15108.26  1510826.33
1139.6  1.00  14443.71  1444371.00
1143.6  1.00  13819.77  1381976.67
1147.5  1.00  13303.10  1330309.67
1151.4  1.00  12862.33  1286232.67
1155.4  1.00  12597.65  1259764.67
1159.3  1.00  12448.45  1244845.00
1163.2  1.00  12297.59  1229759.00
1167.2  1.00  12217.72  1221772.00
1171.1  1.00  12169.33  1216932.67
1175.0  1.00  12115.04  1211503.67
1179.0  1.00  12064.04  1206404.00
1182.9  1.00  12033.79  1203379.33
1186.8  1.00  11995.37  1199537.33
1190.7  1.00  11910.82  1191082.33
1194.7  1.00  11825.28  1182527.67
1198.6  1.00  11767.14  1176714.33
1202.5  1.00  11744.75  1174475.00
1206.4  1.00  11741.92  1174191.67
1210.3  1.00  11749.79  1174979.00
1214.2  1.00  11767.79  1176779.33
1218.2  1.00  11776.27  1177627.00
1222.1  1.00  11802.01  1180201.00
1226.0  1.00  11852.32  1185232.33
1229.9  1.00  11890.02  1189002.00
1233.8  1.00  11919.72  1191972.00
1237.7  1.00  11959.28  1195927.67
1241.6  1.00  11993.75  1199375.33
1245.5  1.00  11989.34  1198934.33
1249.4  1.00  11975.01  1197501.00
1253.3  1.00  11988.82  1198882.00
1257.2  1.00  12016.27  1201627.00
1261.1  1.00  12011.98  1201197.67
1265.0  1.00  11987.79  1198778.67
1268.9  1.00  11929.30  1192930.33
1272.8  1.00  11918.70  1191870.00
1276.7  1.00  11941.82  1194181.67
1280.6  1.00  11919.02  1191901.67
1284.5  1.00  11823.55  1182355.00
1288.4  1.00  11731.69  1173169.33
1292.3  1.00  11606.83  1160683.33
1296.2  1.00  11458.51  1145850.67
1300.1  1.00  11279.73  1127973.33
1303.9  1.00  11053.91  1105390.67
1307.8  1.00  10817.82  1081782.00
