/*** Spectra Vista SIG Data ***/
name= GS1.sig
comm= SIG file reprocesed for matching/overlap;Averaged Ref/Tar of files: GD4S1,GD4S2,GD4S3
data=
346.4  1.00  101.07  10107.00
347.9  1.00  95.38  9538.00
349.5  1.00  98.59  9859.00
351.1  1.00  98.59  9859.00
352.6  1.00  103.73  10373.00
354.2  1.00  102.54  10254.00
355.7  1.00  107.76  10776.00
357.3  1.00  114.66  11466.00
358.8  1.00  115.57  11557.00
360.4  1.00  119.60  11960.00
361.9  1.00  122.58  12258.00
363.5  1.00  123.27  12327.00
365.1  1.00  127.14  12714.00
366.6  1.00  127.05  12705.00
368.2  1.00  122.22  12222.00
369.7  1.00  121.89  12189.00
371.3  1.00  133.90  13390.00
372.8  1.00  132.36  13236.00
374.4  1.00  136.17  13617.00
375.9  1.00  138.58  13858.00
377.4  1.00  139.21  13921.00
379.0  1.00  148.52  14852.00
380.5  1.00  143.62  14362.00
382.1  1.00  144.99  14499.00
383.6  1.00  147.04  14704.00
385.2  1.00  150.33  15033.00
386.7  1.00  160.65  16065.00
388.3  1.00  161.24  16124.00
389.8  1.00  173.85  17385.00
391.3  1.00  177.87  17787.00
392.9  1.00  193.46  19346.00
394.4  1.00  204.56  20456.00
395.9  1.00  215.61  21561.00
397.5  1.00  226.96  22696.00
399.0  1.00  231.13  23113.00
400.6  1.00  233.57  23357.00
402.1  1.00  233.23  23323.00
403.6  1.00  235.91  23591.00
405.1  1.00  239.47  23947.00
406.7  1.00  245.20  24520.00
408.2  1.00  253.04  25304.00
409.7  1.00  264.62  26462.00
411.3  1.00  274.79  27479.00
412.8  1.00  289.46  28946.00
414.3  1.00  300.23  30023.00
415.8  1.00  311.67  31167.00
417.4  1.00  317.09  31709.00
418.9  1.00  330.25  33025.00
420.4  1.00  335.99  33599.00
421.9  1.00  341.38  34138.00
423.5  1.00  344.65  34465.00
425.0  1.00  349.41  34941.00
426.5  1.00  355.47  35547.00
428.0  1.00  358.50  35850.00
429.5  1.00  367.61  36761.00
431.1  1.00  379.52  37952.00
432.6  1.00  390.40  39040.00
434.1  1.00  402.45  40245.00
435.6  1.00  417.44  41744.00
437.1  1.00  427.70  42770.00
438.6  1.00  444.09  44409.00
440.1  1.00  453.86  45386.00
441.6  1.00  474.19  47419.00
443.1  1.00  490.32  49032.00
444.7  1.00  513.48  51348.00
446.2  1.00  530.74  53074.00
447.7  1.00  554.62  55462.00
449.2  1.00  578.30  57830.00
450.7  1.00  592.94  59294.00
452.2  1.00  615.96  61596.00
453.7  1.00  637.72  63772.00
455.2  1.00  659.60  65960.00
456.7  1.00  690.39  69039.00
458.2  1.00  714.38  71438.00
459.7  1.00  747.13  74713.00
461.2  1.00  774.72  77472.00
462.7  1.00  799.77  79977.00
464.2  1.00  822.77  82277.00
465.7  1.00  852.64  85264.00
467.2  1.00  873.18  87318.00
468.7  1.00  898.93  89893.00
470.2  1.00  923.28  92328.00
471.7  1.00  944.62  94462.00
473.2  1.00  965.84  96584.00
474.6  1.00  994.16  99416.00
476.1  1.00  1007.42  100742.00
477.6  1.00  1022.34  102234.00
479.1  1.00  1034.59  103459.00
480.6  1.00  1049.07  104907.00
482.1  1.00  1068.31  106831.00
483.6  1.00  1091.18  109118.00
485.1  1.00  1121.24  112124.00
486.6  1.00  1162.70  116270.00
488.0  1.00  1202.07  120207.00
489.5  1.00  1252.60  125260.00
491.0  1.00  1312.15  131215.00
492.5  1.00  1369.87  136987.00
494.0  1.00  1439.24  143924.00
495.4  1.00  1507.88  150788.00
496.9  1.00  1585.61  158561.00
498.4  1.00  1668.58  166858.00
499.9  1.00  1758.49  175849.00
501.4  1.00  1850.63  185063.00
502.8  1.00  1949.99  194999.00
504.3  1.00  2048.40  204840.00
505.8  1.00  2158.64  215864.00
507.2  1.00  2260.60  226060.00
508.7  1.00  2363.33  236333.00
510.2  1.00  2462.81  246281.00
511.6  1.00  2558.82  255882.00
513.1  1.00  2665.87  266587.00
514.6  1.00  2776.48  277648.00
516.0  1.00  2885.99  288599.00
517.5  1.00  3012.28  301228.00
519.0  1.00  3142.24  314224.00
520.5  1.00  3275.19  327519.00
521.9  1.00  3414.42  341442.00
523.4  1.00  3564.93  356493.00
524.8  1.00  3710.17  371017.00
526.3  1.00  3859.32  385932.00
527.8  1.00  4009.73  400973.00
529.2  1.00  4149.29  414929.00
530.7  1.00  4289.16  428916.00
532.1  1.00  4419.59  441959.00
533.6  1.00  4559.78  455978.00
535.0  1.00  4698.08  469808.00
536.5  1.00  4828.17  482817.00
538.0  1.00  4967.02  496702.00
539.4  1.00  5094.16  509416.00
540.9  1.00  5239.05  523905.00
542.3  1.00  5366.70  536670.00
543.8  1.00  5469.84  546984.00
545.2  1.00  5530.71  553071.00
546.6  1.00  5568.16  556816.00
548.1  1.00  5606.48  560648.00
549.5  1.00  5640.22  564022.00
551.0  1.00  5667.14  566714.00
552.4  1.00  5700.30  570030.00
553.9  1.00  5723.94  572394.00
555.3  1.00  5754.76  575476.00
556.8  1.00  5794.26  579426.00
558.2  1.00  5831.33  583133.00
559.6  1.00  5880.04  588004.00
561.1  1.00  5941.87  594187.00
562.5  1.00  6010.66  601066.00
564.0  1.00  6093.16  609316.00
565.4  1.00  6171.12  617112.00
566.8  1.00  6257.81  625781.00
568.3  1.00  6338.22  633822.00
569.7  1.00  6420.10  642010.00
571.1  1.00  6486.70  648670.00
572.6  1.00  6555.60  655560.00
574.0  1.00  6617.38  661738.00
575.4  1.00  6675.53  667553.00
576.9  1.00  6726.49  672649.00
578.3  1.00  6775.58  677558.00
579.7  1.00  6820.22  682022.00
581.1  1.00  6851.36  685136.00
582.6  1.00  6892.95  689295.00
584.0  1.00  6926.18  692618.00
585.4  1.00  6978.92  697892.00
586.8  1.00  7055.47  705547.00
588.3  1.00  7140.12  714012.00
589.7  1.00  7213.44  721344.00
591.1  1.00  7256.63  725663.00
592.5  1.00  7269.57  726957.00
594.0  1.00  7269.46  726946.00
595.4  1.00  7256.49  725649.00
596.8  1.00  7246.67  724667.00
598.2  1.00  7231.67  723167.00
599.6  1.00  7207.46  720746.00
601.0  1.00  7207.09  720709.00
602.4  1.00  7200.59  720059.00
603.9  1.00  7208.78  720878.00
605.3  1.00  7205.86  720586.00
606.7  1.00  7200.24  720024.00
608.1  1.00  7208.15  720815.00
609.5  1.00  7221.04  722104.00
610.9  1.00  7250.68  725068.00
612.3  1.00  7263.94  726394.00
613.7  1.00  7293.63  729363.00
615.1  1.00  7287.62  728762.00
616.5  1.00  7286.49  728649.00
617.9  1.00  7334.11  733411.00
619.3  1.00  7384.50  738450.00
620.7  1.00  7469.70  746970.00
622.1  1.00  7406.33  740633.00
623.5  1.00  7295.27  729527.00
624.9  1.00  7236.08  723608.00
626.3  1.00  7221.19  722119.00
627.7  1.00  7138.19  713819.00
629.1  1.00  7120.56  712056.00
630.5  1.00  7149.80  714980.00
631.9  1.00  7212.58  721258.00
633.3  1.00  7263.29  726329.00
634.7  1.00  7321.64  732164.00
636.1  1.00  7324.41  732441.00
637.5  1.00  7333.82  733382.00
638.9  1.00  7347.54  734754.00
640.2  1.00  7337.23  733723.00
641.6  1.00  7305.48  730548.00
643.0  1.00  7245.50  724550.00
644.4  1.00  7195.54  719554.00
645.8  1.00  7128.61  712861.00
647.2  1.00  7102.73  710273.00
648.5  1.00  7079.22  707922.00
649.9  1.00  7024.65  702465.00
651.3  1.00  6989.04  698904.00
652.7  1.00  6925.80  692580.00
654.1  1.00  6687.92  668792.00
655.5  1.00  6399.74  639974.00
656.8  1.00  6138.21  613821.00
658.2  1.00  5973.68  597368.00
659.6  1.00  5847.21  584721.00
660.9  1.00  5719.80  571980.00
662.3  1.00  5588.40  558840.00
663.7  1.00  5448.24  544824.00
665.0  1.00  5302.32  530232.00
666.4  1.00  5183.70  518370.00
667.8  1.00  5092.29  509229.00
669.1  1.00  4998.53  499853.00
670.5  1.00  4935.23  493523.00
671.9  1.00  4874.51  487451.00
673.2  1.00  4854.56  485456.00
674.6  1.00  4859.66  485966.00
676.0  1.00  4891.93  489193.00
677.3  1.00  4951.74  495174.00
678.7  1.00  5046.73  504673.00
680.0  1.00  5200.91  520091.00
681.4  1.00  5420.75  542075.00
682.8  1.00  5711.77  571177.00
684.1  1.00  6084.00  608400.00
685.5  1.00  6528.07  652807.00
686.8  1.00  7048.06  704806.00
688.2  1.00  7627.95  762795.00
689.5  1.00  8224.82  822482.00
690.9  1.00  8862.48  886248.00
692.2  1.00  9508.10  950810.00
693.6  1.00  10172.71  1017271.00
694.9  1.00  10779.40  1077940.00
696.2  1.00  11376.72  1137672.00
697.6  1.00  11938.78  1193878.00
698.9  1.00  12487.55  1248755.00
700.3  1.00  13008.95  1300895.00
701.6  1.00  13493.76  1349376.00
703.0  1.00  13934.66  1393466.00
704.3  1.00  14288.76  1428876.00
705.6  1.00  14624.43  1462443.00
707.0  1.00  14932.37  1493237.00
708.3  1.00  15159.30  1515930.00
709.6  1.00  15368.27  1536827.00
711.0  1.00  15516.60  1551660.00
712.3  1.00  15661.10  1566110.00
713.6  1.00  15821.90  1582190.00
714.9  1.00  15957.21  1595721.00
716.3  1.00  16088.68  1608868.00
717.6  1.00  16243.16  1624316.00
718.9  1.00  16314.62  1631462.00
720.2  1.00  16323.83  1632383.00
721.6  1.00  16351.71  1635171.00
722.9  1.00  16363.61  1636361.00
724.2  1.00  16347.32  1634732.00
725.5  1.00  16346.82  1634682.00
726.8  1.00  16312.94  1631294.00
728.1  1.00  16307.19  1630719.00
729.5  1.00  16303.55  1630355.00
730.8  1.00  16300.17  1630017.00
732.1  1.00  16286.38  1628638.00
733.4  1.00  16287.05  1628705.00
734.7  1.00  16268.04  1626804.00
736.0  1.00  16279.24  1627924.00
737.3  1.00  16289.18  1628918.00
738.6  1.00  16354.99  1635499.00
739.9  1.00  16492.82  1649282.00
741.2  1.00  16562.00  1656200.00
742.5  1.00  16717.77  1671777.00
743.8  1.00  16959.64  1695964.00
745.1  1.00  17294.13  1729413.00
746.4  1.00  17642.35  1764235.00
747.7  1.00  17997.56  1799756.00
749.0  1.00  18347.20  1834720.00
750.3  1.00  18503.60  1850360.00
751.6  1.00  18462.29  1846229.00
752.9  1.00  18312.85  1831285.00
754.2  1.00  18135.99  1813599.00
755.4  1.00  17936.13  1793613.00
756.7  1.00  17915.57  1791557.00
758.0  1.00  17974.16  1797416.00
759.3  1.00  18145.48  1814548.00
760.6  1.00  18374.46  1837446.00
761.9  1.00  18568.25  1856825.00
763.1  1.00  18674.30  1867430.00
764.4  1.00  18810.20  1881020.00
765.7  1.00  18919.77  1891977.00
767.0  1.00  19002.14  1900214.00
768.2  1.00  19074.50  1907450.00
769.5  1.00  19152.13  1915213.00
770.8  1.00  19254.97  1925497.00
772.0  1.00  19294.73  1929473.00
773.3  1.00  19366.50  1936650.00
774.6  1.00  19449.56  1944956.00
775.8  1.00  19501.78  1950178.00
777.1  1.00  19520.01  1952001.00
778.4  1.00  19495.81  1949581.00
779.6  1.00  19523.19  1952319.00
780.9  1.00  19525.33  1952533.00
782.1  1.00  19466.01  1946601.00
783.4  1.00  19487.66  1948766.00
784.6  1.00  19528.21  1952821.00
785.9  1.00  19716.18  1971618.00
787.1  1.00  20008.13  2000813.00
788.4  1.00  20175.16  2017516.00
789.6  1.00  20056.04  2005604.00
790.9  1.00  19805.67  1980567.00
792.1  1.00  19597.43  1959743.00
793.4  1.00  19409.62  1940962.00
794.6  1.00  19261.39  1926139.00
795.8  1.00  19165.42  1916542.00
797.1  1.00  19043.59  1904359.00
798.3  1.00  18962.52  1896252.00
799.5  1.00  18922.74  1892274.00
800.8  1.00  18869.30  1886930.00
802.0  1.00  18804.40  1880440.00
803.2  1.00  18708.58  1870858.00
804.5  1.00  18654.41  1865441.00
805.7  1.00  18587.48  1858748.00
806.9  1.00  18523.54  1852354.00
808.1  1.00  18495.08  1849508.00
809.4  1.00  18474.89  1847489.00
810.6  1.00  18431.14  1843114.00
811.8  1.00  18433.27  1843327.00
813.0  1.00  18442.29  1844229.00
814.2  1.00  18454.90  1845490.00
815.4  1.00  18491.90  1849190.00
816.6  1.00  18491.41  1849141.00
817.9  1.00  18472.60  1847260.00
819.1  1.00  18395.54  1839554.00
820.3  1.00  18305.49  1830549.00
821.5  1.00  18239.04  1823904.00
822.7  1.00  18203.97  1820397.00
823.9  1.00  18167.18  1816718.00
825.1  1.00  18125.25  1812525.00
826.3  1.00  18116.10  1811610.00
827.5  1.00  18087.53  1808753.00
828.7  1.00  18058.21  1805821.00
829.9  1.00  18049.18  1804918.00
831.0  1.00  18065.09  1806509.00
832.2  1.00  18073.36  1807336.00
833.4  1.00  18081.48  1808148.00
834.6  1.00  18113.75  1811375.00
835.8  1.00  18123.84  1812384.00
837.0  1.00  18189.60  1818960.00
838.1  1.00  18248.69  1824869.00
839.3  1.00  18279.38  1827938.00
840.5  1.00  18327.77  1832777.00
841.7  1.00  18430.88  1843088.00
842.9  1.00  18523.42  1852342.00
844.0  1.00  18558.00  1855800.00
845.2  1.00  18631.88  1863188.00
846.4  1.00  18674.81  1867481.00
847.5  1.00  18777.51  1877751.00
848.7  1.00  18847.84  1884784.00
849.9  1.00  18910.68  1891068.00
851.0  1.00  18909.15  1890915.00
852.2  1.00  18925.75  1892575.00
853.3  1.00  18890.02  1889002.00
854.5  1.00  18878.19  1887819.00
855.6  1.00  18886.76  1888676.00
856.8  1.00  18933.44  1893344.00
857.9  1.00  18923.26  1892326.00
859.1  1.00  18983.57  1898357.00
860.2  1.00  18994.91  1899491.00
861.4  1.00  19004.87  1900487.00
862.5  1.00  19041.02  1904102.00
863.7  1.00  19081.17  1908117.00
864.8  1.00  19092.59  1909259.00
865.9  1.00  19080.13  1908013.00
867.1  1.00  19087.18  1908718.00
868.2  1.00  19099.91  1909991.00
869.3  1.00  19095.53  1909553.00
870.5  1.00  19060.94  1906094.00
871.6  1.00  19078.51  1907851.00
872.7  1.00  19123.08  1912308.00
873.9  1.00  19126.45  1912645.00
875.0  1.00  19097.23  1909723.00
876.1  1.00  19069.34  1906934.00
877.2  1.00  19079.97  1907997.00
878.3  1.00  19038.47  1903847.00
879.4  1.00  19047.99  1904799.00
880.5  1.00  19042.90  1904290.00
881.7  1.00  19013.63  1901363.00
882.8  1.00  19018.47  1901847.00
883.9  1.00  18992.10  1899210.00
885.0  1.00  18920.90  1892090.00
886.1  1.00  18878.04  1887804.00
887.2  1.00  18782.57  1878257.00
888.3  1.00  18703.20  1870320.00
889.4  1.00  18608.03  1860803.00
890.5  1.00  18557.51  1855751.00
891.6  1.00  18508.16  1850816.00
892.7  1.00  18479.82  1847982.00
893.8  1.00  18506.75  1850675.00
894.9  1.00  18494.95  1849495.00
896.0  1.00  18441.88  1844188.00
897.0  1.00  18431.76  1843176.00
898.1  1.00  18404.11  1840411.00
899.2  1.00  18403.54  1840354.00
900.3  1.00  18325.52  1832552.00
901.4  1.00  18246.61  1824661.00
902.4  1.00  18244.27  1824427.00
903.5  1.00  18194.82  1819482.00
904.6  1.00  18174.62  1817462.00
905.7  1.00  18143.50  1814350.00
906.7  1.00  18103.52  1810352.00
907.8  1.00  18112.24  1811224.00
908.9  1.00  18040.86  1804086.00
909.9  1.00  17991.64  1799164.00
911.0  1.00  17928.11  1792811.00
912.1  1.00  17859.05  1785905.00
913.1  1.00  17772.14  1777214.00
914.2  1.00  17694.78  1769478.00
915.2  1.00  17671.64  1767164.00
916.3  1.00  17607.60  1760760.00
917.3  1.00  17555.45  1755545.00
918.4  1.00  17433.17  1743317.00
919.4  1.00  17362.00  1736200.00
920.5  1.00  17304.82  1730482.00
921.5  1.00  17252.61  1725261.00
922.6  1.00  17162.36  1716236.00
923.6  1.00  17101.79  1710179.00
924.7  1.00  17038.03  1703803.00
925.7  1.00  16957.53  1695753.00
926.7  1.00  16880.64  1688064.00
927.8  1.00  16821.76  1682176.00
928.8  1.00  16799.92  1679992.00
929.9  1.00  16747.98  1674798.00
930.9  1.00  16766.98  1676698.00
931.9  1.00  16765.18  1676518.00
932.9  1.00  16820.60  1682060.00
934.0  1.00  16712.28  1671228.00
935.0  1.00  16640.03  1664003.00
936.0  1.00  16551.41  1655141.00
937.0  1.00  16437.30  1643730.00
938.1  1.00  16353.50  1635350.00
939.1  1.00  16263.68  1626368.00
940.1  1.00  16207.71  1620771.00
941.1  1.00  16198.29  1619829.00
942.1  1.00  16185.10  1618510.00
943.1  1.00  16162.58  1616258.00
944.1  1.00  16166.16  1616616.00
945.2  1.00  16061.47  1606147.00
946.2  1.00  15998.11  1599811.00
947.2  1.00  15923.38  1592338.00
948.2  1.00  15890.95  1589095.00
949.2  1.00  15784.93  1578493.00
950.2  1.00  15694.79  1569479.00
951.2  1.00  15588.05  1558805.00
952.2  1.00  15528.93  1552893.00
953.2  1.00  15471.67  1547167.00
954.2  1.00  15432.78  1543278.00
955.2  1.00  15303.10  1530310.00
956.2  1.00  15183.26  1518326.00
957.2  1.00  15160.36  1516036.00
958.2  1.00  15094.22  1509422.00
959.2  1.00  15071.58  1507158.00
960.1  1.00  15038.87  1503887.00
961.1  1.00  15047.04  1504704.00
962.1  1.00  14993.38  1499338.00
963.1  1.00  14975.87  1497587.00
964.1  1.00  15009.24  1500924.00
965.1  1.00  15018.62  1501862.00
966.1  1.00  15000.93  1500093.00
967.0  1.00  15056.52  1505652.00
968.0  1.00  15036.30  1503630.00
969.0  1.00  15037.07  1503707.00
970.0  1.00  15071.10  1507110.00
971.0  1.00  15056.33  1505633.00
971.9  1.00  15080.56  1508056.00
972.9  1.00  15021.33  1502133.00
973.9  1.00  14977.08  1497708.00
974.9  1.00  14942.15  1494215.00
975.8  1.00  14932.98  1493298.00
976.8  1.00  14938.75  1493875.00
977.8  1.00  14849.84  1484984.00
978.8  1.00  14891.20  1489120.00
979.7  1.00  14844.02  1484402.00
981.4  1.00  15572.63  1557263.00
985.3  1.00  15454.68  1545468.00
989.3  1.00  15505.61  1550561.00
993.3  1.00  15648.47  1564847.00
997.2  1.00  15774.03  1577403.00
1001.2  1.00  15886.04  1588604.00
1005.2  1.00  16010.07  1601007.00
1009.1  1.00  16210.85  1621085.00
1013.1  1.00  16450.64  1645064.00
1017.1  1.00  16682.04  1668204.00
1021.0  1.00  16865.86  1686586.00
1025.0  1.00  17050.57  1705057.00
1029.0  1.00  17165.55  1716555.00
1032.9  1.00  17274.53  1727453.00
1036.9  1.00  17453.49  1745349.00
1040.9  1.00  17684.06  1768406.00
1044.8  1.00  17936.78  1793678.00
1048.8  1.00  18162.94  1816294.00
1052.7  1.00  18353.12  1835312.00
1056.7  1.00  18484.32  1848432.00
1060.7  1.00  18579.15  1857915.00
1064.6  1.00  18648.23  1864823.00
1068.6  1.00  18648.48  1864848.00
1072.5  1.00  18622.51  1862251.00
1076.5  1.00  18594.57  1859457.00
1080.4  1.00  18539.79  1853979.00
1084.4  1.00  18481.53  1848153.00
1088.3  1.00  18421.05  1842105.00
1092.3  1.00  18293.27  1829327.00
1096.2  1.00  18151.67  1815167.00
1100.2  1.00  18023.53  1802353.00
1104.1  1.00  17836.19  1783619.00
1108.1  1.00  17672.97  1767297.00
1112.0  1.00  17464.47  1746447.00
1116.0  1.00  17194.89  1719489.00
1119.9  1.00  16909.10  1690910.00
1123.9  1.00  16638.39  1663839.00
1127.8  1.00  16231.68  1623168.00
1131.8  1.00  15709.90  1570990.00
1135.7  1.00  15108.26  1510826.00
1139.6  1.00  14443.71  1444371.00
1143.6  1.00  13819.77  1381977.00
1147.5  1.00  13303.10  1330310.00
1151.4  1.00  12862.33  1286233.00
1155.4  1.00  12597.65  1259765.00
1159.3  1.00  12448.45  1244845.00
1163.2  1.00  12297.59  1229759.00
1167.2  1.00  12217.72  1221772.00
1171.1  1.00  12169.33  1216933.00
1175.0  1.00  12115.04  1211504.00
1179.0  1.00  12064.04  1206404.00
1182.9  1.00  12033.79  1203379.00
1186.8  1.00  11995.37  1199537.00
1190.7  1.00  11910.82  1191082.00
1194.7  1.00  11825.28  1182528.00
1198.6  1.00  11767.14  1176714.00
1202.5  1.00  11744.75  1174475.00
1206.4  1.00  11741.92  1174192.00
1210.3  1.00  11749.79  1174979.00
1214.2  1.00  11767.79  1176779.00
1218.2  1.00  11776.27  1177627.00
1222.1  1.00  11802.01  1180201.00
1226.0  1.00  11852.32  1185232.00
1229.9  1.00  11890.02  1189002.00
1233.8  1.00  11919.72  1191972.00
1237.7  1.00  11959.28  1195928.00
1241.6  1.00  11993.75  1199375.00
1245.5  1.00  11989.34  1198934.00
1249.4  1.00  11975.01  1197501.00
1253.3  1.00  11988.82  1198882.00
1257.2  1.00  12016.27  1201627.00
1261.1  1.00  12011.98  1201198.00
1265.0  1.00  11987.79  1198779.00
1268.9  1.00  11929.30  1192930.00
1272.8  1.00  11918.70  1191870.00
1276.7  1.00  11941.82  1194182.00
1280.6  1.00  11919.02  1191902.00
1284.5  1.00  11823.55  1182355.00
1288.4  1.00  11731.69  1173169.00
1292.3  1.00  11606.83  1160683.00
1296.2  1.00  11458.51  1145851.00
1300.1  1.00  11279.73  1127973.00
1303.9  1.00  11053.91  1105391.00
1307.8  1.00  10817.82  1081782.00
1311.7  1.00  10577.33  1057733.00
1315.6  1.00  10314.80  1031480.00
1319.5  1.00  10026.46  1002646.00
1323.3  1.00  9741.81  974181.00
1327.2  1.00  9457.43  945743.00
1331.1  1.00  9159.55  915955.00
1335.0  1.00  8855.52  885552.00
1338.8  1.00  8597.99  859799.00
1342.7  1.00  8373.79  837379.00
1346.5  1.00  8124.25  812425.00
1350.4  1.00  7902.54  790254.00
1354.3  1.00  7659.45  765945.00
1358.1  1.00  7406.26  740626.00
1362.0  1.00  7194.70  719470.00
1365.8  1.00  7002.44  700244.00
1369.7  1.00  6815.39  681539.00
1373.5  1.00  6549.92  654992.00
1377.4  1.00  6187.09  618709.00
1381.2  1.00  5765.42  576542.00
1385.1  1.00  5342.98  534298.00
1389.0  1.00  4920.42  492042.00
1392.8  1.00  4497.12  449712.00
1396.6  1.00  4112.28  411228.00
1400.5  1.00  3775.82  377582.00
1404.3  1.00  3508.40  350840.00
1408.2  1.00  3300.78  330078.00
1412.0  1.00  3140.80  314080.00
1415.8  1.00  3024.33  302433.00
1419.6  1.00  2927.19  292719.00
1423.5  1.00  2855.05  285505.00
1427.3  1.00  2802.48  280248.00
