/*** Spectra Vista SIG Data ***/
name= GT1.sig
comm= SIG file reprocesed for matching/overlap;Averaged Ref/Tar of files: GD4T1,GD4T2,GD4T3
data=
346.4  1.00  76.02  7602.00
347.9  1.00  77.81  7781.00
349.5  1.00  79.04  7904.00
351.1  1.00  81.74  8174.00
352.6  1.00  80.75  8075.00
354.2  1.00  83.78  8378.00
355.7  1.00  87.55  8755.00
357.3  1.00  90.62  9062.00
358.8  1.00  92.97  9297.00
360.4  1.00  94.97  9497.00
361.9  1.00  95.88  9588.00
363.5  1.00  96.26  9626.00
365.1  1.00  94.55  9455.00
366.6  1.00  97.82  9782.00
368.2  1.00  95.35  9535.00
369.7  1.00  92.94  9294.00
371.3  1.00  99.22  9922.00
372.8  1.00  96.50  9650.00
374.4  1.00  98.79  9879.00
375.9  1.00  100.40  10040.00
377.4  1.00  100.40  10040.00
379.0  1.00  98.23  9823.00
380.5  1.00  99.09  9909.00
382.1  1.00  96.13  9613.00
383.6  1.00  97.52  9752.00
385.2  1.00  99.18  9918.00
386.7  1.00  98.73  9873.00
388.3  1.00  100.19  10019.00
389.8  1.00  103.94  10394.00
391.3  1.00  109.36  10936.00
392.9  1.00  111.34  11134.00
394.4  1.00  117.12  11712.00
395.9  1.00  124.97  12497.00
397.5  1.00  132.65  13265.00
399.0  1.00  132.46  13246.00
400.6  1.00  129.24  12924.00
402.1  1.00  125.04  12504.00
403.6  1.00  123.07  12307.00
405.1  1.00  123.39  12339.00
406.7  1.00  127.83  12783.00
408.2  1.00  130.09  13009.00
409.7  1.00  133.95  13395.00
411.3  1.00  141.52  14152.00
412.8  1.00  144.89  14489.00
414.3  1.00  150.93  15093.00
415.8  1.00  157.67  15767.00
417.4  1.00  161.92  16192.00
418.9  1.00  166.30  16630.00
420.4  1.00  168.00  16800.00
421.9  1.00  170.69  17069.00
423.5  1.00  172.01  17201.00
425.0  1.00  172.01  17201.00
426.5  1.00  172.57  17257.00
428.0  1.00  178.02  17802.00
429.5  1.00  180.65  18065.00
431.1  1.00  184.73  18473.00
432.6  1.00  188.54  18854.00
434.1  1.00  195.07  19507.00
435.6  1.00  201.11  20111.00
437.1  1.00  206.31  20631.00
438.6  1.00  211.83  21183.00
440.1  1.00  217.15  21715.00
441.6  1.00  226.15  22615.00
443.1  1.00  233.96  23396.00
444.7  1.00  243.31  24331.00
446.2  1.00  252.74  25274.00
447.7  1.00  261.35  26135.00
449.2  1.00  272.74  27274.00
450.7  1.00  280.11  28011.00
452.2  1.00  285.58  28558.00
453.7  1.00  289.44  28944.00
455.2  1.00  298.45  29845.00
456.7  1.00  305.89  30589.00
458.2  1.00  315.60  31560.00
459.7  1.00  325.27  32527.00
461.2  1.00  335.35  33535.00
462.7  1.00  343.56  34356.00
464.2  1.00  353.56  35356.00
465.7  1.00  360.73  36073.00
467.2  1.00  371.27  37127.00
468.7  1.00  380.53  38053.00
470.2  1.00  387.45  38745.00
471.7  1.00  400.27  40027.00
473.2  1.00  415.99  41599.00
474.6  1.00  425.09  42509.00
476.1  1.00  426.40  42640.00
477.6  1.00  424.13  42413.00
479.1  1.00  424.92  42492.00
480.6  1.00  430.42  43042.00
482.1  1.00  436.28  43628.00
483.6  1.00  445.29  44529.00
485.1  1.00  456.50  45650.00
486.6  1.00  471.62  47162.00
488.0  1.00  484.69  48469.00
489.5  1.00  505.17  50517.00
491.0  1.00  523.85  52385.00
492.5  1.00  546.05  54605.00
494.0  1.00  572.69  57269.00
495.4  1.00  603.13  60313.00
496.9  1.00  633.60  63360.00
498.4  1.00  668.20  66820.00
499.9  1.00  707.73  70773.00
501.4  1.00  749.65  74965.00
502.8  1.00  795.97  79597.00
504.3  1.00  844.08  84408.00
505.8  1.00  897.18  89718.00
507.2  1.00  950.72  95072.00
508.7  1.00  1006.73  100673.00
510.2  1.00  1063.49  106349.00
511.6  1.00  1125.47  112547.00
513.1  1.00  1191.19  119119.00
514.6  1.00  1262.48  126248.00
516.0  1.00  1333.55  133355.00
517.5  1.00  1410.53  141053.00
519.0  1.00  1494.29  149429.00
520.5  1.00  1576.04  157604.00
521.9  1.00  1665.50  166550.00
523.4  1.00  1757.48  175748.00
524.8  1.00  1848.64  184864.00
526.3  1.00  1943.10  194310.00
527.8  1.00  2034.89  203489.00
529.2  1.00  2117.54  211754.00
530.7  1.00  2204.08  220408.00
532.1  1.00  2283.83  228383.00
533.6  1.00  2364.53  236453.00
535.0  1.00  2444.91  244491.00
536.5  1.00  2518.36  251836.00
538.0  1.00  2591.21  259121.00
539.4  1.00  2660.08  266008.00
540.9  1.00  2744.03  274403.00
542.3  1.00  2824.72  282472.00
543.8  1.00  2886.10  288610.00
545.2  1.00  2917.44  291744.00
546.6  1.00  2937.77  293777.00
548.1  1.00  2961.36  296136.00
549.5  1.00  2981.89  298189.00
551.0  1.00  2998.99  299899.00
552.4  1.00  3020.25  302025.00
553.9  1.00  3032.26  303226.00
555.3  1.00  3043.87  304387.00
556.8  1.00  3061.23  306123.00
558.2  1.00  3075.52  307552.00
559.6  1.00  3089.29  308929.00
561.1  1.00  3108.74  310874.00
562.5  1.00  3124.34  312434.00
564.0  1.00  3150.03  315003.00
565.4  1.00  3165.97  316597.00
566.8  1.00  3184.17  318417.00
568.3  1.00  3197.63  319763.00
569.7  1.00  3209.41  320941.00
571.1  1.00  3214.38  321438.00
572.6  1.00  3217.86  321786.00
574.0  1.00  3220.36  322036.00
575.4  1.00  3219.19  321919.00
576.9  1.00  3217.37  321737.00
578.3  1.00  3212.50  321250.00
579.7  1.00  3209.15  320915.00
581.1  1.00  3197.90  319790.00
582.6  1.00  3192.99  319299.00
584.0  1.00  3185.65  318565.00
585.4  1.00  3193.94  319394.00
586.8  1.00  3216.81  321681.00
588.3  1.00  3245.27  324527.00
589.7  1.00  3269.14  326914.00
591.1  1.00  3274.34  327434.00
592.5  1.00  3268.41  326841.00
594.0  1.00  3256.89  325689.00
595.4  1.00  3241.52  324152.00
596.8  1.00  3227.51  322751.00
598.2  1.00  3215.36  321536.00
599.6  1.00  3197.04  319704.00
601.0  1.00  3186.96  318696.00
602.4  1.00  3176.07  317607.00
603.9  1.00  3165.79  316579.00
605.3  1.00  3154.53  315453.00
606.7  1.00  3137.40  313740.00
608.1  1.00  3127.05  312705.00
609.5  1.00  3114.81  311481.00
610.9  1.00  3105.00  310500.00
612.3  1.00  3089.48  308948.00
613.7  1.00  3082.65  308265.00
615.1  1.00  3062.99  306299.00
616.5  1.00  3045.54  304554.00
617.9  1.00  3044.00  304400.00
619.3  1.00  3042.65  304265.00
620.7  1.00  3052.68  305268.00
622.1  1.00  3108.76  310876.00
623.5  1.00  3198.07  319807.00
624.9  1.00  3300.39  330039.00
626.3  1.00  3383.28  338328.00
627.7  1.00  3370.50  337050.00
629.1  1.00  3322.60  332260.00
630.5  1.00  3295.50  329550.00
631.9  1.00  3282.56  328256.00
633.3  1.00  3254.68  325468.00
634.7  1.00  3206.18  320618.00
636.1  1.00  3132.56  313256.00
637.5  1.00  3057.02  305702.00
638.9  1.00  2973.70  297370.00
640.2  1.00  2888.53  288853.00
641.6  1.00  2798.48  279848.00
643.0  1.00  2696.26  269626.00
644.4  1.00  2593.31  259331.00
645.8  1.00  2484.84  248484.00
647.2  1.00  2408.41  240841.00
648.5  1.00  2335.96  233596.00
649.9  1.00  2263.08  226308.00
651.3  1.00  2196.06  219606.00
652.7  1.00  2144.21  214421.00
654.1  1.00  2109.53  210953.00
655.5  1.00  2067.06  206706.00
656.8  1.00  2016.89  201689.00
658.2  1.00  1986.83  198683.00
659.6  1.00  1953.08  195308.00
660.9  1.00  1911.99  191199.00
662.3  1.00  1868.23  186823.00
663.7  1.00  1822.66  182266.00
665.0  1.00  1774.29  177429.00
666.4  1.00  1732.95  173295.00
667.8  1.00  1702.50  170250.00
669.1  1.00  1673.08  167308.00
670.5  1.00  1653.74  165374.00
671.9  1.00  1643.29  164329.00
673.2  1.00  1641.86  164186.00
674.6  1.00  1647.70  164770.00
676.0  1.00  1664.63  166463.00
677.3  1.00  1689.13  168913.00
678.7  1.00  1733.58  173358.00
680.0  1.00  1799.26  179926.00
681.4  1.00  1888.42  188842.00
682.8  1.00  2008.52  200852.00
684.1  1.00  2162.47  216247.00
685.5  1.00  2360.21  236021.00
686.8  1.00  2605.96  260596.00
688.2  1.00  2891.22  289122.00
689.5  1.00  3211.44  321144.00
690.9  1.00  3569.16  356916.00
692.2  1.00  3953.35  395335.00
693.6  1.00  4363.78  436378.00
694.9  1.00  4786.33  478633.00
696.2  1.00  5232.79  523279.00
697.6  1.00  5683.06  568306.00
698.9  1.00  6128.67  612867.00
700.3  1.00  6566.06  656606.00
701.6  1.00  6996.95  699695.00
703.0  1.00  7414.37  741437.00
704.3  1.00  7804.98  780498.00
705.6  1.00  8155.54  815554.00
707.0  1.00  8494.39  849439.00
708.3  1.00  8801.67  880167.00
709.6  1.00  9083.48  908348.00
711.0  1.00  9348.96  934896.00
712.3  1.00  9589.31  958931.00
713.6  1.00  9832.34  983234.00
714.9  1.00  10049.99  1004999.00
716.3  1.00  10274.61  1027461.00
717.6  1.00  10494.47  1049447.00
718.9  1.00  10676.92  1067692.00
720.2  1.00  10821.55  1082155.00
721.6  1.00  10951.77  1095177.00
722.9  1.00  11053.28  1105328.00
724.2  1.00  11120.92  1112092.00
725.5  1.00  11197.20  1119720.00
726.8  1.00  11266.55  1126655.00
728.1  1.00  11344.98  1134498.00
729.5  1.00  11399.91  1139991.00
730.8  1.00  11452.79  1145279.00
732.1  1.00  11487.51  1148751.00
733.4  1.00  11530.60  1153060.00
734.7  1.00  11571.75  1157175.00
736.0  1.00  11617.98  1161798.00
737.3  1.00  11650.22  1165022.00
738.6  1.00  11717.31  1171731.00
739.9  1.00  11799.61  1179961.00
741.2  1.00  11881.87  1188187.00
742.5  1.00  11994.72  1199472.00
743.8  1.00  12156.95  1215695.00
745.1  1.00  12386.83  1238683.00
746.4  1.00  12674.39  1267439.00
747.7  1.00  12989.37  1298937.00
749.0  1.00  13309.65  1330965.00
750.3  1.00  13525.38  1352538.00
751.6  1.00  13558.82  1355882.00
752.9  1.00  13460.32  1346032.00
754.2  1.00  13331.18  1333118.00
755.4  1.00  13190.34  1319034.00
756.7  1.00  13139.49  1313949.00
758.0  1.00  13155.24  1315524.00
759.3  1.00  13257.07  1325707.00
760.6  1.00  13373.15  1337315.00
761.9  1.00  13506.67  1350667.00
763.1  1.00  13593.25  1359325.00
764.4  1.00  13683.00  1368300.00
765.7  1.00  13755.73  1375573.00
767.0  1.00  13812.38  1381238.00
768.2  1.00  13868.96  1386896.00
769.5  1.00  13924.72  1392472.00
770.8  1.00  14001.74  1400174.00
772.0  1.00  14037.73  1403773.00
773.3  1.00  14079.11  1407911.00
774.6  1.00  14133.98  1413398.00
775.8  1.00  14181.07  1418107.00
777.1  1.00  14197.01  1419701.00
778.4  1.00  14197.85  1419785.00
779.6  1.00  14206.16  1420616.00
780.9  1.00  14195.73  1419573.00
782.1  1.00  14158.73  1415873.00
783.4  1.00  14170.90  1417090.00
784.6  1.00  14191.34  1419134.00
785.9  1.00  14288.65  1428865.00
787.1  1.00  14484.04  1448404.00
788.4  1.00  14678.37  1467837.00
789.6  1.00  14744.08  1474408.00
790.9  1.00  14675.77  1467577.00
792.1  1.00  14537.52  1453752.00
793.4  1.00  14391.88  1439188.00
794.6  1.00  14296.11  1429611.00
795.8  1.00  14221.11  1422111.00
797.1  1.00  14129.74  1412974.00
798.3  1.00  14068.67  1406867.00
799.5  1.00  14031.81  1403181.00
800.8  1.00  14004.55  1400455.00
802.0  1.00  13961.68  1396168.00
803.2  1.00  13922.20  1392220.00
804.5  1.00  13900.35  1390035.00
805.7  1.00  13867.79  1386779.00
806.9  1.00  13831.12  1383112.00
808.1  1.00  13789.62  1378962.00
809.4  1.00  13763.45  1376345.00
810.6  1.00  13726.44  1372644.00
811.8  1.00  13709.88  1370988.00
813.0  1.00  13698.40  1369840.00
814.2  1.00  13701.22  1370122.00
815.4  1.00  13738.60  1373860.00
816.6  1.00  13755.49  1375549.00
817.9  1.00  13775.05  1377505.00
819.1  1.00  13752.01  1375201.00
820.3  1.00  13702.51  1370251.00
821.5  1.00  13663.77  1366377.00
822.7  1.00  13628.39  1362839.00
823.9  1.00  13603.41  1360341.00
825.1  1.00  13579.67  1357967.00
826.3  1.00  13553.91  1355391.00
827.5  1.00  13535.18  1353518.00
828.7  1.00  13511.58  1351158.00
829.9  1.00  13477.29  1347729.00
831.0  1.00  13463.96  1346396.00
832.2  1.00  13453.94  1345394.00
833.4  1.00  13440.76  1344076.00
834.6  1.00  13440.31  1344031.00
835.8  1.00  13431.92  1343192.00
837.0  1.00  13437.36  1343736.00
838.1  1.00  13466.84  1346684.00
839.3  1.00  13486.33  1348633.00
840.5  1.00  13518.39  1351839.00
841.7  1.00  13543.77  1354377.00
842.9  1.00  13567.92  1356792.00
844.0  1.00  13601.64  1360164.00
845.2  1.00  13645.67  1364567.00
846.4  1.00  13684.83  1368483.00
847.5  1.00  13748.13  1374813.00
848.7  1.00  13805.57  1380557.00
849.9  1.00  13876.21  1387621.00
851.0  1.00  13919.27  1391927.00
852.2  1.00  13938.49  1393849.00
853.3  1.00  13940.71  1394071.00
854.5  1.00  13935.71  1393571.00
855.6  1.00  13933.32  1393332.00
856.8  1.00  13939.76  1393976.00
857.9  1.00  13930.59  1393059.00
859.1  1.00  13958.68  1395868.00
860.2  1.00  13955.42  1395542.00
861.4  1.00  13962.23  1396223.00
862.5  1.00  13980.49  1398049.00
863.7  1.00  14003.23  1400323.00
864.8  1.00  14014.21  1401421.00
865.9  1.00  13993.41  1399341.00
867.1  1.00  14005.88  1400588.00
868.2  1.00  14011.14  1401114.00
869.3  1.00  14011.70  1401170.00
870.5  1.00  13980.28  1398028.00
871.6  1.00  13972.62  1397262.00
872.7  1.00  13982.53  1398253.00
873.9  1.00  13977.94  1397794.00
875.0  1.00  13960.49  1396049.00
876.1  1.00  13942.55  1394255.00
877.2  1.00  13928.27  1392827.00
878.3  1.00  13926.54  1392654.00
879.4  1.00  13929.09  1392909.00
880.5  1.00  13928.62  1392862.00
881.7  1.00  13907.57  1390757.00
882.8  1.00  13918.40  1391840.00
883.9  1.00  13911.58  1391158.00
885.0  1.00  13885.46  1388546.00
886.1  1.00  13862.07  1386207.00
887.2  1.00  13816.03  1381603.00
888.3  1.00  13759.13  1375913.00
889.4  1.00  13706.19  1370619.00
890.5  1.00  13660.59  1366059.00
891.6  1.00  13619.16  1361916.00
892.7  1.00  13600.20  1360020.00
893.8  1.00  13575.41  1357541.00
894.9  1.00  13549.53  1354953.00
896.0  1.00  13519.68  1351968.00
897.0  1.00  13517.61  1351761.00
898.1  1.00  13506.50  1350650.00
899.2  1.00  13473.88  1347388.00
900.3  1.00  13435.84  1343584.00
901.4  1.00  13396.48  1339648.00
902.4  1.00  13376.06  1337606.00
903.5  1.00  13333.32  1333332.00
904.6  1.00  13311.76  1331176.00
905.7  1.00  13282.04  1328204.00
906.7  1.00  13242.99  1324299.00
907.8  1.00  13227.13  1322713.00
908.9  1.00  13177.58  1317758.00
909.9  1.00  13142.93  1314293.00
911.0  1.00  13091.05  1309105.00
912.1  1.00  13043.18  1304318.00
913.1  1.00  12996.81  1299681.00
914.2  1.00  12928.25  1292825.00
915.2  1.00  12878.44  1287844.00
916.3  1.00  12839.88  1283988.00
917.3  1.00  12787.75  1278775.00
918.4  1.00  12714.68  1271468.00
919.4  1.00  12658.39  1265839.00
920.5  1.00  12599.16  1259916.00
921.5  1.00  12549.38  1254938.00
922.6  1.00  12483.12  1248312.00
923.6  1.00  12431.15  1243115.00
924.7  1.00  12381.85  1238185.00
925.7  1.00  12313.07  1231307.00
926.7  1.00  12265.19  1226519.00
927.8  1.00  12211.44  1221144.00
928.8  1.00  12176.21  1217621.00
929.9  1.00  12137.80  1213780.00
930.9  1.00  12120.06  1212006.00
931.9  1.00  12089.13  1208913.00
932.9  1.00  12096.25  1209625.00
934.0  1.00  12019.81  1201981.00
935.0  1.00  11950.60  1195060.00
936.0  1.00  11861.58  1186158.00
937.0  1.00  11763.36  1176336.00
938.1  1.00  11674.25  1167425.00
939.1  1.00  11584.87  1158487.00
940.1  1.00  11533.00  1153300.00
941.1  1.00  11506.94  1150694.00
942.1  1.00  11496.87  1149687.00
943.1  1.00  11454.83  1145483.00
944.1  1.00  11415.75  1141575.00
945.2  1.00  11357.78  1135778.00
946.2  1.00  11289.27  1128927.00
947.2  1.00  11235.89  1123589.00
948.2  1.00  11174.43  1117443.00
949.2  1.00  11102.49  1110249.00
950.2  1.00  11030.19  1103019.00
951.2  1.00  10960.37  1096037.00
952.2  1.00  10887.88  1088788.00
953.2  1.00  10818.54  1081854.00
954.2  1.00  10764.56  1076456.00
955.2  1.00  10680.01  1068001.00
956.2  1.00  10607.83  1060783.00
957.2  1.00  10547.55  1054755.00
958.2  1.00  10485.72  1048572.00
959.2  1.00  10477.29  1047729.00
960.1  1.00  10427.59  1042759.00
961.1  1.00  10422.45  1042245.00
962.1  1.00  10384.69  1038469.00
963.1  1.00  10361.74  1036174.00
964.1  1.00  10361.03  1036103.00
965.1  1.00  10358.55  1035855.00
966.1  1.00  10350.36  1035036.00
967.0  1.00  10387.43  1038743.00
968.0  1.00  10371.58  1037158.00
969.0  1.00  10380.43  1038043.00
970.0  1.00  10387.32  1038732.00
971.0  1.00  10411.23  1041123.00
971.9  1.00  10424.76  1042476.00
972.9  1.00  10471.00  1047100.00
973.9  1.00  10514.77  1051477.00
974.9  1.00  10552.15  1055215.00
975.8  1.00  10616.95  1061695.00
976.8  1.00  10661.11  1066111.00
977.8  1.00  10699.87  1069987.00
978.8  1.00  10780.23  1078023.00
979.7  1.00  10837.21  1083721.00
981.4  1.00  13315.18  1331518.00
985.3  1.00  13400.46  1340046.00
989.3  1.00  13476.71  1347671.00
993.3  1.00  13556.02  1355602.00
997.2  1.00  13579.87  1357987.00
1001.2  1.00  13653.68  1365368.00
1005.2  1.00  13789.27  1378927.00
1009.1  1.00  13988.34  1398834.00
1013.1  1.00  14231.31  1423131.00
1017.1  1.00  14456.35  1445635.00
1021.0  1.00  14643.61  1464361.00
1025.0  1.00  14832.63  1483263.00
1029.0  1.00  14976.09  1497609.00
1032.9  1.00  15124.76  1512476.00
1036.9  1.00  15314.12  1531412.00
1040.9  1.00  15534.03  1553403.00
1044.8  1.00  15771.05  1577105.00
1048.8  1.00  15967.27  1596727.00
1052.7  1.00  16129.72  1612972.00
1056.7  1.00  16233.45  1623345.00
1060.7  1.00  16313.17  1631317.00
1064.6  1.00  16378.83  1637883.00
1068.6  1.00  16362.36  1636236.00
1072.5  1.00  16332.76  1633276.00
1076.5  1.00  16302.69  1630269.00
1080.4  1.00  16245.57  1624557.00
1084.4  1.00  16185.19  1618519.00
1088.3  1.00  16115.61  1611561.00
1092.3  1.00  15989.54  1598954.00
1096.2  1.00  15835.38  1583538.00
1100.2  1.00  15691.64  1569164.00
1104.1  1.00  15505.34  1550534.00
1108.1  1.00  15327.27  1532727.00
1112.0  1.00  15140.24  1514024.00
1116.0  1.00  14904.44  1490444.00
1119.9  1.00  14642.76  1464276.00
1123.9  1.00  14386.96  1438696.00
1127.8  1.00  13990.40  1399040.00
1131.8  1.00  13496.29  1349629.00
1135.7  1.00  12937.65  1293765.00
1139.6  1.00  12328.33  1232833.00
1143.6  1.00  11736.06  1173606.00
1147.5  1.00  11226.01  1122601.00
1151.4  1.00  10801.48  1080148.00
1155.4  1.00  10529.65  1052965.00
1159.3  1.00  10356.54  1035654.00
1163.2  1.00  10197.39  1019739.00
1167.2  1.00  10099.62  1009962.00
1171.1  1.00  10040.01  1004001.00
1175.0  1.00  9977.77  997777.00
1179.0  1.00  9917.81  991781.00
1182.9  1.00  9879.60  987960.00
1186.8  1.00  9838.16  983816.00
1190.7  1.00  9749.12  974912.00
1194.7  1.00  9656.79  965679.00
1198.6  1.00  9603.83  960383.00
1202.5  1.00  9580.24  958024.00
1206.4  1.00  9569.10  956910.00
1210.3  1.00  9570.66  957066.00
1214.2  1.00  9594.31  959431.00
1218.2  1.00  9617.62  961762.00
1222.1  1.00  9644.88  964488.00
1226.0  1.00  9684.45  968445.00
1229.9  1.00  9718.08  971808.00
1233.8  1.00  9742.63  974263.00
1237.7  1.00  9775.42  977542.00
1241.6  1.00  9799.49  979949.00
1245.5  1.00  9805.16  980516.00
1249.4  1.00  9806.63  980663.00
1253.3  1.00  9801.66  980166.00
1257.2  1.00  9807.06  980706.00
1261.1  1.00  9791.93  979193.00
1265.0  1.00  9761.93  976193.00
1268.9  1.00  9711.56  971156.00
1272.8  1.00  9694.75  969475.00
1276.7  1.00  9697.27  969727.00
1280.6  1.00  9657.85  965785.00
1284.5  1.00  9578.75  957875.00
1288.4  1.00  9504.24  950424.00
1292.3  1.00  9383.00  938300.00
1296.2  1.00  9241.17  924117.00
1300.1  1.00  9070.38  907038.00
1303.9  1.00  8875.19  887519.00
1307.8  1.00  8658.61  865861.00
1311.7  1.00  8430.25  843025.00
1315.6  1.00  8198.77  819877.00
1319.5  1.00  7942.95  794295.00
1323.3  1.00  7687.99  768799.00
1327.2  1.00  7434.88  743488.00
1331.1  1.00  7182.05  718205.00
1335.0  1.00  6929.19  692919.00
1338.8  1.00  6703.89  670389.00
1342.7  1.00  6505.71  650571.00
1346.5  1.00  6286.00  628600.00
1350.4  1.00  6095.96  609596.00
1354.3  1.00  5900.55  590055.00
1358.1  1.00  5700.90  570090.00
1362.0  1.00  5512.17  551217.00
1365.8  1.00  5330.29  533029.00
1369.7  1.00  5162.74  516274.00
1373.5  1.00  4935.81  493581.00
1377.4  1.00  4640.96  464096.00
1381.2  1.00  4299.72  429972.00
1385.1  1.00  3965.15  396515.00
1389.0  1.00  3622.98  362298.00
1392.8  1.00  3275.38  327538.00
1396.6  1.00  2974.49  297449.00
1400.5  1.00  2708.95  270895.00
1404.3  1.00  2489.99  248999.00
1408.2  1.00  2323.56  232356.00
1412.0  1.00  2188.09  218809.00
1415.8  1.00  2087.03  208703.00
1419.6  1.00  2012.74  201274.00
1423.5  1.00  1953.87  195387.00
1427.3  1.00  1911.70  191170.00
1431.1  1.00  1880.15  188015.00
1434.9  1.00  1845.15  184515.00
1438.8  1.00  1829.62  182962.00
1442.6  1.00  1817.94  181794.00
1446.4  1.00  1797.90  179790.00
1450.2  1.00  1788.61  178861.00
