/*** Spectra Vista SIG Data ***/
name= GB.sig
comm= Averaged Ref/Tar of files: GB1,GB2,GB3
data=
346.4  468.20  171.99  36.74
347.9  473.76  168.38  35.54
349.5  521.04  174.72  33.53
351.1  558.48  177.84  31.84
352.6  585.06  189.75  32.43
354.2  625.05  195.26  31.24
355.7  673.50  195.87  29.08
357.3  724.71  202.27  27.91
358.8  751.43  217.27  28.91
360.4  798.47  218.08  27.31
361.9  821.87  220.56  26.84
363.5  851.78  226.80  26.63
365.1  887.68  227.70  25.65
366.6  918.37  226.14  24.62
368.2  973.68  223.27  22.93
369.7  1008.89  226.38  22.44
371.3  1073.36  231.57  21.57
372.8  1148.72  244.57  21.29
374.4  1191.49  241.97  20.31
375.9  1247.87  252.11  20.20
377.4  1278.23  254.24  19.89
379.0  1330.29  249.83  18.78
380.5  1360.26  245.69  18.06
382.1  1412.49  249.20  17.64
383.6  1460.03  249.48  17.09
385.2  1529.00  254.38  16.64
386.7  1608.26  257.21  15.99
388.3  1679.42  267.67  15.94
389.8  1759.55  277.25  15.76
391.3  1843.67  286.39  15.53
392.9  1897.62  296.83  15.64
394.4  1955.58  306.64  15.68
395.9  2019.02  328.13  16.25
397.5  2131.80  345.07  16.19
399.0  2240.25  344.54  15.38
400.6  2303.62  344.32  14.95
402.1  2342.64  333.68  14.24
403.6  2375.92  332.05  13.98
405.1  2451.81  340.09  13.87
406.7  2542.40  347.95  13.69
408.2  2650.73  364.20  13.74
409.7  2746.24  374.08  13.62
411.3  2843.51  387.09  13.61
412.8  2936.43  404.88  13.79
414.3  3034.90  428.31  14.11
415.8  3152.50  437.50  13.88
417.4  3253.58  456.67  14.04
418.9  3339.60  472.27  14.14
420.4  3424.70  478.97  13.99
421.9  3487.22  491.26  14.09
423.5  3546.87  493.08  13.90
425.0  3613.98  494.82  13.69
426.5  3695.85  504.54  13.65
428.0  3801.23  509.70  13.41
429.5  3926.30  523.70  13.34
431.1  4071.24  541.48  13.30
432.6  4225.66  551.12  13.04
434.1  4373.60  572.37  13.09
435.6  4514.36  587.60  13.02
437.1  4642.95  607.43  13.08
438.6  4769.06  624.22  13.09
440.1  4906.69  646.29  13.17
441.6  5042.30  669.17  13.27
443.1  5179.95  692.89  13.38
444.7  5318.34  719.94  13.54
446.2  5433.01  747.98  13.77
447.7  5551.25  778.14  14.02
449.2  5676.48  811.80  14.30
450.7  5788.64  832.00  14.37
452.2  5916.62  855.43  14.46
453.7  6028.91  878.17  14.57
455.2  6201.73  906.18  14.61
456.7  6390.56  939.84  14.71
458.2  6607.30  976.85  14.78
459.7  6823.25  1014.13  14.86
461.2  7031.76  1045.76  14.87
462.7  7219.07  1072.51  14.86
464.2  7396.86  1102.27  14.90
465.7  7583.22  1135.26  14.97
467.2  7742.35  1166.87  15.07
468.7  7912.00  1190.00  15.04
470.2  8015.91  1222.62  15.25
471.7  8177.13  1267.06  15.50
473.2  8446.52  1313.74  15.55
474.6  8688.33  1333.27  15.35
476.1  8747.12  1330.65  15.21
477.6  8779.39  1341.21  15.28
479.1  8829.54  1356.74  15.37
480.6  8916.06  1371.98  15.39
482.1  9046.91  1399.13  15.47
483.6  9204.08  1433.83  15.58
485.1  9394.00  1472.56  15.68
486.6  9626.34  1519.27  15.78
488.0  9867.00  1574.36  15.96
489.5  10130.90  1635.19  16.14
491.0  10387.73  1707.37  16.44
492.5  10649.88  1779.57  16.71
494.0  10928.34  1867.17  17.09
495.4  11158.95  1957.73  17.54
496.9  11406.10  2058.55  18.05
498.4  11649.48  2165.28  18.59
499.9  11878.23  2283.99  19.23
501.4  12101.58  2413.34  19.94
502.8  12308.24  2552.99  20.74
504.3  12497.40  2698.50  21.59
505.8  12681.02  2859.12  22.55
507.2  12808.72  3022.51  23.60
508.7  12896.48  3182.94  24.68
510.2  12964.78  3353.68  25.87
511.6  13008.39  3529.98  27.14
513.1  13093.74  3727.53  28.47
514.6  13195.49  3931.18  29.79
516.0  13281.41  4135.99  31.14
517.5  13429.99  4365.66  32.51
519.0  13603.01  4608.93  33.88
520.5  13772.72  4851.39  35.22
521.9  13993.28  5113.77  36.54
523.4  14243.35  5382.33  37.79
524.8  14493.24  5643.39  38.94
526.3  14778.04  5913.44  40.02
527.8  15074.01  6180.46  41.00
529.2  15339.71  6429.04  41.91
530.7  15629.94  6677.45  42.72
532.1  15903.48  6908.80  43.44
533.6  16214.37  7146.40  44.07
535.0  16534.98  7383.34  44.65
536.5  16856.03  7608.00  45.14
538.0  17178.24  7831.65  45.59
539.4  17501.02  8045.83  45.97
540.9  17879.62  8289.96  46.37
542.3  18237.67  8500.87  46.61
543.8  18504.51  8669.54  46.85
545.2  18600.74  8766.83  47.13
546.6  18637.00  8839.52  47.43
548.1  18690.38  8919.83  47.72
549.5  18745.60  8991.74  47.97
551.0  18790.92  9050.59  48.16
552.4  18868.34  9116.76  48.32
553.9  18922.09  9156.75  48.39
555.3  18999.63  9193.57  48.39
556.8  19143.87  9250.11  48.32
558.2  19276.31  9289.41  48.19
559.6  19441.66  9339.38  48.04
561.1  19660.88  9403.33  47.83
562.5  19883.82  9472.38  47.64
564.0  20177.05  9558.34  47.37
565.4  20444.07  9621.34  47.06
566.8  20774.24  9703.12  46.71
568.3  21077.79  9759.19  46.30
569.7  21403.31  9809.92  45.83
571.1  21706.83  9838.74  45.33
572.6  22010.94  9861.21  44.80
574.0  22299.75  9876.08  44.29
575.4  22570.31  9883.13  43.79
576.9  22820.49  9887.09  43.33
578.3  23040.88  9880.71  42.88
579.7  23243.15  9872.93  42.48
581.1  23410.31  9848.35  42.07
582.6  23592.46  9837.10  41.70
584.0  23735.52  9824.43  41.39
585.4  23971.18  9834.25  41.03
586.8  24286.87  9887.68  40.71
588.3  24642.54  9961.38  40.42
589.7  24935.04  10016.76  40.17
591.1  25126.37  10039.93  39.96
592.5  25213.30  10033.06  39.79
594.0  25248.06  10020.34  39.69
595.4  25246.58  9985.85  39.55
596.8  25248.80  9963.17  39.46
598.2  25256.70  9935.64  39.34
599.6  25254.00  9906.33  39.23
601.0  25321.45  9894.88  39.08
602.4  25392.58  9880.93  38.91
603.9  25508.50  9869.69  38.69
605.3  25652.08  9859.92  38.44
606.7  25770.60  9832.20  38.15
608.1  26003.60  9828.31  37.80
609.5  26249.20  9824.61  37.43
610.9  26543.12  9825.24  37.02
612.3  26820.62  9816.41  36.60
613.7  27191.20  9833.17  36.16
615.1  27470.34  9814.77  35.73
616.5  27748.85  9797.46  35.31
617.9  28163.94  9836.95  34.93
619.3  28559.37  9868.35  34.55
620.7  29021.55  9930.37  34.22
622.1  29524.34  10047.87  34.03
623.5  30070.32  10228.77  34.02
624.9  30686.25  10463.03  34.10
626.3  31117.56  10633.37  34.17
627.7  30854.43  10564.49  34.24
629.1  30617.27  10460.12  34.16
630.5  30534.25  10393.53  34.04
631.9  30583.88  10369.06  33.90
633.3  30636.73  10355.20  33.80
634.7  30802.72  10361.13  33.64
636.1  30887.16  10318.66  33.41
637.5  30991.21  10255.04  33.09
638.9  31137.59  10121.93  32.51
640.2  31275.86  9949.55  31.81
641.6  31334.94  9740.25  31.08
643.0  31307.82  9456.58  30.21
644.4  31297.86  9145.31  29.22
645.8  31223.60  8796.50  28.17
647.2  31327.01  8506.27  27.15
648.5  31378.61  8190.75  26.10
649.9  31215.99  7809.49  25.02
651.3  31061.55  7465.13  24.03
652.7  30880.50  7188.03  23.28
654.1  30705.72  7095.87  23.11
655.5  30448.41  7047.31  23.15
656.8  30219.54  6958.35  23.03
658.2  30347.48  6904.18  22.75
659.6  30667.01  6844.83  22.32
660.9  30915.41  6725.97  21.76
662.3  31175.28  6599.91  21.17
663.7  31418.10  6466.60  20.58
665.0  31622.76  6327.33  20.01
666.4  31821.65  6190.87  19.45
667.8  32088.83  6084.51  18.96
669.1  32304.87  6000.72  18.58
670.5  32567.66  5932.78  18.22
671.9  32723.64  5884.38  17.98
673.2  32957.22  5872.90  17.82
674.6  33165.65  5885.18  17.74
676.0  33416.99  5935.99  17.76
677.3  33670.84  6016.15  17.87
678.7  33959.63  6152.23  18.12
680.0  34360.72  6360.77  18.51
681.4  34770.40  6648.07  19.12
682.8  35166.95  7029.00  19.99
684.1  35575.02  7519.98  21.14
685.5  35948.61  8145.28  22.66
686.8  36307.14  8910.94  24.54
688.2  36654.12  9818.14  26.79
689.5  36792.82  10799.59  29.35
690.9  36894.22  11886.61  32.22
692.2  37000.50  13036.88  35.23
693.6  37086.31  14232.91  38.38
694.9  37102.94  15423.40  41.57
696.2  37172.03  16649.27  44.79
697.6  37238.58  17877.34  48.01
698.9  37321.68  19065.64  51.08
700.3  37412.04  20220.36  54.05
701.6  37521.51  21336.69  56.87
703.0  37648.39  22407.87  59.52
704.3  37727.46  23403.44  62.03
705.6  37779.39  24299.97  64.32
707.0  37853.11  25179.06  66.52
708.3  37804.36  25918.90  68.56
709.6  37779.31  26595.59  70.40
711.0  37700.05  27195.38  72.14
712.3  37603.29  27733.31  73.75
713.6  37599.66  28300.93  75.27
714.9  37564.50  28787.60  76.64
716.3  37606.65  29316.34  77.96
717.6  37655.10  29827.60  79.21
718.9  37643.31  30254.46  80.37
720.2  37519.65  30570.06  81.48
721.6  37437.79  30881.72  82.49
722.9  37295.06  31102.36  83.40
724.2  37099.21  31215.77  84.14
725.5  36957.59  31349.03  84.82
726.8  36833.83  31472.86  85.45
728.1  36764.75  31640.66  86.06
729.5  36694.32  31750.04  86.53
730.8  36660.60  31858.57  86.90
732.1  36590.42  31901.22  87.18
733.4  36549.03  31970.20  87.47
734.7  36509.02  32022.79  87.71
736.0  36510.50  32124.80  87.99
737.3  36452.29  32150.58  88.20
738.6  36538.42  32315.42  88.44
739.9  36706.85  32524.95  88.61
741.2  36841.35  32714.96  88.80
742.5  37078.82  32987.80  88.97
743.8  37494.19  33415.11  89.12
745.1  38118.44  34025.33  89.26
746.4  38876.11  34768.52  89.43
747.7  39639.96  35576.17  89.75
749.0  40400.48  36387.48  90.07
750.3  40850.46  36940.16  90.43
751.6  40764.46  36980.34  90.72
752.9  40356.61  36660.10  90.84
754.2  39863.99  36266.12  90.97
755.4  39350.05  35820.12  91.03
756.7  39155.03  35676.94  91.12
758.0  39142.09  35704.51  91.22
759.3  39351.46  35930.87  91.31
760.6  39645.76  36220.80  91.36
761.9  39928.94  36508.53  91.43
763.1  40078.15  36702.25  91.58
764.4  40287.45  36925.90  91.66
765.7  40433.25  37093.33  91.74
767.0  40515.07  37243.94  91.93
768.2  40595.52  37360.40  92.03
769.5  40644.33  37455.80  92.16
770.8  40787.04  37645.24  92.30
772.0  40799.41  37701.67  92.41
773.3  40833.29  37787.36  92.54
774.6  40907.98  37923.46  92.70
775.8  40955.53  38065.19  92.94
777.1  40964.33  38121.97  93.06
778.4  40867.87  38109.70  93.25
779.6  40816.98  38128.86  93.41
780.9  40688.00  38076.67  93.58
782.1  40484.72  37940.77  93.72
783.4  40464.32  37974.56  93.85
784.6  40463.12  38002.83  93.92
785.9  40670.74  38246.73  94.04
787.1  41171.80  38790.58  94.22
788.4  41528.97  39371.55  94.81
789.6  41482.13  39553.41  95.35
790.9  41134.16  39331.95  95.62
792.1  40655.28  38918.00  95.73
793.4  40180.32  38548.47  95.94
794.6  39846.60  38327.63  96.19
795.8  39587.54  38128.28  96.31
797.1  39290.10  37897.01  96.45
798.3  39054.26  37763.35  96.69
799.5  38943.25  37707.10  96.83
800.8  38778.22  37636.04  97.05
802.0  38618.88  37549.90  97.23
803.2  38465.20  37451.21  97.36
804.5  38332.71  37407.86  97.59
805.7  38219.65  37328.72  97.67
806.9  38073.35  37260.36  97.86
808.1  37984.05  37201.87  97.94
809.4  37906.28  37168.93  98.05
810.6  37824.15  37120.42  98.14
811.8  37796.29  37112.70  98.19
813.0  37827.58  37147.20  98.20
814.2  37840.50  37177.94  98.25
815.4  37955.24  37322.41  98.33
816.6  38027.91  37394.67  98.33
817.9  38102.35  37514.76  98.46
819.1  38072.96  37472.73  98.42
820.3  37949.69  37386.28  98.52
821.5  37894.61  37291.34  98.41
822.7  37866.54  37231.90  98.32
823.9  37906.28  37231.86  98.22
825.1  37943.15  37228.77  98.12
826.3  38020.73  37206.86  97.86
827.5  38108.05  37205.37  97.63
828.7  38176.32  37214.92  97.48
829.9  38262.68  37196.53  97.21
831.0  38386.63  37205.71  96.92
832.2  38533.16  37243.48  96.65
833.4  38634.36  37271.18  96.47
834.6  38746.88  37328.13  96.34
835.8  38872.58  37369.24  96.13
837.0  39026.76  37441.56  95.94
838.1  39200.00  37562.85  95.82
839.3  39334.99  37636.99  95.68
840.5  39499.16  37750.66  95.57
841.7  39675.29  37854.61  95.41
842.9  39834.34  37961.75  95.30
844.0  40002.80  38073.97  95.18
845.2  40188.33  38217.64  95.10
846.4  40315.24  38341.74  95.10
847.5  40575.08  38560.25  95.03
848.7  40794.29  38732.66  94.95
849.9  41043.27  38954.64  94.91
851.0  41176.72  39077.71  94.90
852.2  41283.01  39203.84  94.96
853.3  41336.03  39220.50  94.88
854.5  41385.60  39236.09  94.81
855.6  41408.01  39254.30  94.80
856.8  41491.09  39282.94  94.68
857.9  41535.42  39293.99  94.60
859.1  41657.80  39404.10  94.59
860.2  41711.76  39419.56  94.50
861.4  41789.90  39463.64  94.43
862.5  41857.52  39516.67  94.41
863.7  41978.22  39585.65  94.30
864.8  42001.40  39595.21  94.27
865.9  42003.19  39543.73  94.14
867.1  42077.89  39579.69  94.06
868.2  42118.25  39596.81  94.01
869.3  42153.63  39593.84  93.93
870.5  42092.46  39525.91  93.90
871.6  42122.53  39496.53  93.77
872.7  42223.14  39554.88  93.68
873.9  42262.83  39552.23  93.59
875.0  42247.20  39495.47  93.49
876.1  42225.11  39468.89  93.47
877.2  42279.84  39451.00  93.31
878.3  42302.12  39421.44  93.19
879.4  42284.06  39398.29  93.18
880.5  42343.92  39397.62  93.04
881.7  42326.05  39333.35  92.93
882.8  42351.34  39382.04  92.99
883.9  42430.09  39421.89  92.91
885.0  42357.32  39343.62  92.89
886.1  42357.47  39339.18  92.87
887.2  42241.92  39188.72  92.77
888.3  42147.85  39096.39  92.76
889.4  42045.32  38974.17  92.70
890.5  41945.29  38822.06  92.55
891.6  41864.40  38738.11  92.53
892.7  41844.69  38687.11  92.45
893.8  41881.85  38638.51  92.26
894.9  41879.31  38562.08  92.08
896.0  41812.69  38513.38  92.11
897.0  41850.92  38491.83  91.97
898.1  41821.61  38437.87  91.91
899.2  41852.54  38415.42  91.79
900.3  41747.94  38290.86  91.72
901.4  41622.41  38153.09  91.66
902.4  41658.53  38138.85  91.55
903.5  41604.82  38025.25  91.40
904.6  41550.72  37972.00  91.39
905.7  41565.54  37935.43  91.27
906.7  41536.49  37871.98  91.18
907.8  41558.34  37818.31  91.00
908.9  41493.73  37694.18  90.84
909.9  41451.58  37618.17  90.75
911.0  41358.23  37505.51  90.68
912.1  41297.17  37368.08  90.49
913.1  41189.72  37255.83  90.45
914.2  41099.85  37036.20  90.11
915.2  41068.89  36919.71  89.90
916.3  41034.15  36839.95  89.78
917.3  40975.74  36719.22  89.61
918.4  40862.80  36523.17  89.38
919.4  40836.29  36378.62  89.08
920.5  40782.84  36237.64  88.86
921.5  40833.45  36138.21  88.50
922.6  40729.18  35924.60  88.20
923.6  40739.49  35790.73  87.85
924.7  40774.75  35655.96  87.45
925.7  40746.72  35468.76  87.05
926.7  40808.40  35349.00  86.62
927.8  40839.01  35216.49  86.23
928.8  40966.59  35140.33  85.78
929.9  41048.46  35021.01  85.32
930.9  41217.18  34950.87  84.80
931.9  41378.61  34883.89  84.30
932.9  41679.25  34930.46  83.81
934.0  41702.58  34771.68  83.38
935.0  41757.18  34550.22  82.74
936.0  41670.71  34287.33  82.28
937.0  41632.50  34035.56  81.75
938.1  41580.55  33782.45  81.25
939.1  41508.45  33516.81  80.75
940.1  41591.64  33376.91  80.25
941.1  41779.29  33302.87  79.71
942.1  41991.60  33249.60  79.18
943.1  42156.63  33122.46  78.57
944.1  42391.18  33015.92  77.88
945.2  42445.20  32849.46  77.39
946.2  42493.04  32688.82  76.93
947.2  42572.63  32445.52  76.21
948.2  42750.54  32289.53  75.53
949.2  42846.38  32097.95  74.91
950.2  42880.60  31813.89  74.19
951.2  42968.52  31601.64  73.55
952.2  43001.40  31393.93  73.01
953.2  43164.71  31204.09  72.29
954.2  43310.48  31029.38  71.64
955.2  43368.34  30824.85  71.08
956.2  43301.73  30571.61  70.60
957.2  43392.87  30423.97  70.11
958.2  43492.10  30266.72  69.59
959.2  43506.45  30172.58  69.35
960.1  43588.22  30065.83  68.98
961.1  43692.83  30013.43  68.69
962.1  43658.44  29910.16  68.51
963.1  43782.00  29896.41  68.28
964.1  43817.42  29880.89  68.19
965.1  43908.74  29892.73  68.08
966.1  44007.38  29902.20  67.95
967.0  44141.86  29916.80  67.77
968.0  44131.86  29944.39  67.85
969.0  44255.20  29945.73  67.67
970.0  44255.36  29941.34  67.66
971.0  44316.83  29935.69  67.55
971.9  44400.90  30017.84  67.61
972.9  44577.14  30099.20  67.52
973.9  44494.78  30185.24  67.84
974.9  44573.29  30343.95  68.08
975.8  44702.44  30468.61  68.16
976.8  44666.28  30522.46  68.33
977.8  44950.93  30641.61  68.17
978.8  44877.90  30786.88  68.60
979.7  45104.10  30961.70  68.64
980.7  45212.81  31122.74  68.84
981.7  45433.99  31369.02  69.04
982.6  45657.51  31598.59  69.21
983.6  46147.45  32069.17  69.49
984.6  46551.05  32352.27  69.50
985.5  47031.84  32798.52  69.74
986.5  47664.14  33488.74  70.26
987.5  48852.12  34416.45  70.45
988.4  49722.20  35299.92  70.99
989.4  51183.38  36078.04  70.49
990.4  52549.20  37198.02  70.79
991.3  54023.93  38799.53  71.82
992.3  54777.10  39452.55  72.02
993.2  55874.36  41176.48  73.69
994.2  57686.85  42421.76  73.54
995.2  57633.14  43504.63  75.49
996.1  59292.71  44163.90  74.48
997.1  59931.56  44568.67  74.37
998.0  60640.20  45451.60  74.95
999.0  59258.53  45166.56  76.22
1000.0  60377.42  45189.31  74.84
1000.9  59810.48  45710.42  76.43
1001.9  59598.95  45273.57  75.96
1002.8  60212.52  46204.75  76.74
1003.8  59788.51  45968.78  76.89
1004.8  59326.80  46244.48  77.95
961.5  55398.21  30712.33  55.44
965.5  54418.85  30393.81  55.85
969.5  52458.23  29795.07  56.80
973.4  50487.36  29270.65  57.98
977.4  48611.32  29030.94  59.72
981.4  47578.80  29066.36  61.09
985.3  47203.20  29217.91  61.90
989.3  47137.31  29514.17  62.61
993.3  47133.16  29830.32  63.29
997.2  47029.21  30090.98  63.98
1001.2  46955.35  30419.35  64.78
1005.2  46914.32  30836.01  65.73
1009.1  47038.13  31396.57  66.75
1013.1  47236.75  32031.98  67.81
1017.1  47375.30  32654.94  68.93
1021.0  47429.61  33217.74  70.04
1025.0  47461.87  33785.86  71.19
1029.0  47354.18  34258.90  72.35
1032.9  47271.77  34728.50  73.47
1036.9  47308.70  35283.90  74.58
1040.9  47476.08  35884.33  75.58
1044.8  47747.63  36502.81  76.45
1048.8  47970.59  37057.77  77.25
1052.7  48104.60  37508.47  77.97
1056.7  48183.46  37839.58  78.53
1060.7  48250.82  38096.86  78.96
1064.6  48272.17  38285.56  79.31
1068.6  48190.54  38317.90  79.51
1072.5  48116.11  38270.48  79.54
1076.5  48076.67  38203.85  79.46
1080.4  48048.88  38088.99  79.27
1084.4  48150.59  37971.96  78.86
1088.3  48279.53  37808.31  78.31
1092.3  48252.92  37485.45  77.69
1096.2  48221.83  37114.73  76.97
1100.2  48245.69  36758.63  76.19
1104.1  48124.97  36286.49  75.40
1108.1  48059.38  35848.50  74.59
1112.0  47955.87  35350.80  73.72
1116.0  47754.46  34747.94  72.76
1119.9  47569.76  34073.19  71.63
1123.9  47623.80  33388.83  70.11
1127.8  47592.96  32378.88  68.03
1131.8  47556.42  31083.25  65.36
1135.7  47568.82  29598.88  62.22
1139.6  47554.30  28004.12  58.89
1143.6  47510.71  26477.73  55.73
1147.5  47481.98  25181.09  53.03
1151.4  47337.52  24122.74  50.96
1155.4  47322.86  23445.45  49.54
1159.3  47329.81  23019.52  48.64
1163.2  47159.49  22655.15  48.04
1167.2  47113.86  22456.58  47.66
1171.1  47117.13  22329.71  47.39
1175.0  47022.16  22194.86  47.20
1179.0  46962.63  22069.78  46.99
1182.9  47045.30  22001.60  46.77
1186.8  47019.62  21906.71  46.59
1190.7  46784.64  21717.96  46.42
1194.7  46508.35  21549.29  46.33
1198.6  46264.68  21431.03  46.32
1202.5  46100.54  21365.29  46.34
1206.4  45962.62  21338.52  46.43
1210.3  45829.98  21346.61  46.58
1214.2  45707.13  21390.17  46.80
1218.2  45554.16  21435.95  47.06
1222.1  45384.95  21488.37  47.35
1226.0  45257.55  21557.21  47.63
1229.9  45156.00  21640.96  47.92
1233.8  45033.17  21712.44  48.21
1237.7  44950.68  21786.13  48.47
1241.6  44841.64  21829.83  48.68
1245.5  44683.61  21842.84  48.88
1249.4  44538.65  21871.49  49.11
1253.3  44401.40  21878.56  49.27
1257.2  44324.52  21874.34  49.35
1261.1  44209.48  21840.84  49.40
1265.0  44086.55  21763.23  49.36
1268.9  43910.05  21650.43  49.31
1272.8  43969.80  21636.25  49.21
1276.7  44155.69  21637.19  49.00
1280.6  44249.88  21562.71  48.73
1284.5  44188.89  21374.24  48.37
1288.4  44167.03  21176.58  47.95
1292.3  44060.50  20889.00  47.41
1296.2  43934.23  20554.93  46.79
1300.1  43787.98  20183.19  46.09
1303.9  43564.57  19737.92  45.31
1307.8  43339.22  19251.71  44.42
1311.7  43109.06  18733.80  43.46
1315.6  42877.90  18191.71  42.43
1319.5  42633.84  17613.10  41.31
1323.3  42417.44  17041.04  40.17
1327.2  42218.70  16490.96  39.06
1331.1  42002.86  15938.84  37.95
1335.0  41739.72  15379.47  36.85
1338.8  41543.11  14875.81  35.81
1342.7  41389.31  14404.74  34.80
1346.5  41042.00  13883.28  33.83
1350.4  40741.74  13426.74  32.96
