/*** Spectra Vista SIG Data ***/
name= AODB.sig
comm= Averaged Ref/Tar of files: AODB4,AODB5,AODB6
data=
346.4  509.60  125.70  24.67
347.9  536.51  128.43  23.94
349.5  577.20  128.13  22.20
351.1  620.88  127.71  20.57
352.6  679.94  135.36  19.91
354.2  723.22  138.75  19.19
355.7  777.89  151.31  19.45
357.3  842.60  151.65  18.00
358.8  838.80  157.04  18.72
360.4  904.00  164.15  18.16
361.9  943.76  162.52  17.22
363.5  997.20  162.51  16.30
365.1  1040.25  160.89  15.47
366.6  1087.54  164.34  15.11
368.2  1161.70  169.22  14.57
369.7  1204.79  165.86  13.77
371.3  1287.37  168.14  13.06
372.8  1354.56  171.31  12.65
374.4  1435.13  178.45  12.43
375.9  1463.02  181.83  12.43
377.4  1512.41  180.84  11.96
379.0  1578.52  185.86  11.77
380.5  1618.77  176.03  10.87
382.1  1669.58  177.30  10.62
383.6  1726.52  175.77  10.18
385.2  1809.50  176.37  9.75
386.7  1900.67  180.50  9.50
388.3  1991.93  185.52  9.31
389.8  2077.97  186.29  8.97
391.3  2163.95  197.55  9.13
392.9  2236.17  199.53  8.92
394.4  2293.88  202.98  8.85
395.9  2364.42  216.45  9.15
397.5  2493.56  228.25  9.15
399.0  2617.23  236.07  9.02
400.6  2691.33  223.38  8.30
402.1  2739.96  218.44  7.97
403.6  2797.88  213.86  7.64
405.1  2865.39  212.35  7.41
406.7  2979.20  218.33  7.33
408.2  3089.54  223.05  7.22
409.7  3183.04  231.17  7.26
411.3  3295.62  239.60  7.27
412.8  3391.47  249.64  7.36
414.3  3507.27  263.35  7.51
415.8  3622.50  272.33  7.52
417.4  3739.34  275.26  7.36
418.9  3830.42  287.75  7.51
420.4  3913.23  290.46  7.42
421.9  3978.48  291.69  7.33
423.5  4044.22  295.76  7.31
425.0  4110.68  303.56  7.38
426.5  4198.95  305.30  7.27
428.0  4314.36  307.33  7.12
429.5  4445.73  317.05  7.13
431.1  4599.50  326.11  7.09
432.6  4769.72  336.56  7.06
434.1  4937.63  349.58  7.08
435.6  5085.18  360.42  7.09
437.1  5233.80  369.46  7.06
438.6  5364.45  379.64  7.08
440.1  5501.44  393.06  7.14
441.6  5653.06  403.44  7.14
443.1  5799.60  413.37  7.13
444.7  5941.01  424.43  7.14
446.2  6051.88  435.32  7.19
447.7  6161.82  448.19  7.27
449.2  6292.08  456.77  7.26
450.7  6396.00  460.37  7.20
452.2  6529.70  464.26  7.11
453.7  6647.26  472.08  7.10
455.2  6815.62  482.97  7.09
456.7  7013.60  497.26  7.09
458.2  7232.90  510.74  7.06
459.7  7456.75  530.37  7.11
461.2  7667.16  546.68  7.13
462.7  7858.10  561.58  7.15
464.2  8041.02  577.31  7.18
465.7  8240.35  597.29  7.25
467.2  8402.63  615.49  7.32
468.7  8584.00  636.53  7.42
470.2  8698.25  649.48  7.47
471.7  8877.75  674.50  7.60
473.2  9159.71  700.77  7.65
474.6  9386.40  709.00  7.55
476.1  9450.96  706.67  7.48
477.6  9499.75  709.66  7.47
479.1  9557.87  717.37  7.51
480.6  9632.82  718.69  7.46
482.1  9760.73  733.91  7.52
483.6  9935.74  749.52  7.54
485.1  10133.78  769.86  7.60
486.6  10366.07  790.36  7.62
488.0  10621.00  816.40  7.69
489.5  10873.80  842.82  7.75
491.0  11134.31  872.69  7.84
492.5  11404.80  904.61  7.93
494.0  11683.71  939.80  8.04
495.4  11917.95  973.50  8.17
496.9  12154.26  1010.46  8.31
498.4  12387.41  1047.32  8.45
499.9  12623.63  1087.52  8.61
501.4  12839.71  1124.94  8.76
502.8  13042.06  1166.07  8.94
504.3  13226.40  1202.40  9.09
505.8  13406.54  1244.16  9.28
507.2  13518.16  1281.92  9.48
508.7  13603.31  1318.43  9.69
510.2  13672.60  1348.87  9.87
511.6  13715.26  1380.83  10.07
513.1  13806.21  1415.96  10.26
514.6  13898.29  1453.32  10.46
516.0  13992.63  1489.70  10.65
517.5  14151.40  1532.09  10.83
519.0  14339.95  1579.76  11.02
520.5  14520.56  1629.07  11.22
521.9  14760.83  1688.83  11.44
523.4  15031.28  1753.65  11.67
524.8  15295.25  1818.10  11.89
526.3  15594.01  1891.67  12.13
527.8  15909.50  1966.20  12.36
529.2  16189.50  2045.73  12.64
530.7  16509.28  2127.01  12.88
532.1  16791.25  2204.70  13.13
533.6  17121.20  2297.97  13.42
535.0  17454.94  2389.93  13.69
536.5  17789.22  2486.37  13.98
538.0  18136.88  2585.32  14.25
539.4  18461.69  2687.82  14.56
540.9  18864.39  2805.82  14.87
542.3  19206.33  2919.82  15.20
543.8  19460.81  3017.64  15.51
545.2  19544.37  3090.80  15.81
546.6  19566.05  3153.90  16.12
548.1  19604.97  3227.78  16.46
549.5  19640.65  3295.35  16.78
551.0  19664.79  3362.70  17.10
552.4  19724.92  3441.37  17.45
553.9  19761.60  3511.26  17.77
555.3  19812.20  3588.16  18.11
556.8  19934.49  3675.59  18.44
558.2  20047.50  3763.35  18.77
559.6  20200.16  3857.60  19.10
561.1  20397.00  3964.78  19.44
562.5  20617.77  4073.55  19.76
564.0  20901.40  4199.20  20.09
565.4  21161.13  4322.28  20.43
566.8  21482.31  4458.59  20.75
568.3  21793.28  4595.27  21.09
569.7  22118.60  4737.59  21.42
571.1  22425.71  4879.62  21.76
572.6  22741.56  5022.00  22.08
574.0  23030.70  5168.46  22.44
575.4  23309.44  5313.60  22.80
576.9  23581.06  5453.68  23.13
578.3  23822.01  5595.59  23.49
579.7  24048.22  5738.13  23.86
581.1  24227.75  5862.69  24.20
582.6  24429.78  5997.12  24.55
584.0  24600.48  6127.36  24.91
585.4  24853.74  6278.78  25.26
586.8  25196.68  6459.96  25.64
588.3  25573.86  6649.03  26.00
589.7  25896.78  6826.25  26.36
591.1  26104.75  6982.50  26.75
592.5  26211.06  7106.66  27.11
594.0  26269.26  7219.44  27.48
595.4  26286.44  7316.37  27.83
596.8  26295.56  7414.26  28.20
598.2  26315.92  7508.78  28.53
599.6  26317.98  7602.97  28.89
601.0  26398.05  7717.21  29.23
602.4  26470.93  7823.63  29.56
603.9  26597.64  7943.56  29.87
605.3  26727.57  8073.44  30.21
606.7  26857.80  8195.76  30.52
608.1  27088.39  8340.73  30.79
609.5  27333.21  8499.03  31.09
610.9  27623.29  8668.92  31.38
612.3  27891.32  8829.65  31.66
613.7  28252.28  9036.18  31.98
615.1  28513.62  9210.67  32.30
616.5  28776.05  9379.62  32.60
617.9  29165.50  9590.21  32.88
619.3  29543.24  9788.15  33.13
620.7  29990.55  10008.69  33.37
622.1  30437.05  10261.39  33.71
623.5  30934.60  10562.80  34.15
624.9  31494.75  10875.55  34.53
626.3  31867.36  11108.05  34.86
627.7  31569.69  11086.00  35.12
629.1  31287.59  11068.79  35.38
630.5  31184.65  11092.84  35.57
631.9  31222.21  11169.94  35.78
633.3  31256.33  11252.65  36.00
634.7  31400.48  11370.96  36.21
636.1  31461.82  11456.10  36.41
637.5  31554.77  11553.30  36.61
638.9  31702.82  11636.62  36.71
640.2  31825.04  11721.79  36.83
641.6  31863.78  11786.42  36.99
643.0  31847.61  11899.69  37.36
644.4  31829.55  11985.86  37.66
645.8  31751.71  11955.20  37.65
647.2  31867.94  11995.64  37.64
648.5  31926.34  12006.40  37.61
649.9  31776.23  11937.15  37.57
651.3  31648.05  11872.12  37.51
652.7  31449.15  11781.00  37.46
654.1  31244.46  11771.26  37.67
655.5  31005.95  11802.34  38.06
656.8  30780.41  11826.22  38.42
658.2  30925.42  11980.77  38.74
659.6  31264.45  12183.38  38.97
660.9  31536.04  12350.70  39.16
662.3  31822.64  12515.68  39.33
663.7  32096.40  12680.08  39.51
665.0  32332.90  12824.04  39.66
666.4  32562.99  12960.77  39.80
667.8  32863.56  13128.16  39.95
669.1  33114.69  13275.05  40.09
670.5  33405.09  13441.83  40.24
671.9  33586.56  13564.64  40.39
673.2  33844.75  13723.31  40.55
674.6  34082.18  13880.84  40.73
676.0  34372.41  14056.80  40.90
677.3  34659.68  14226.73  41.05
678.7  34979.63  14427.33  41.24
680.0  35399.92  14668.88  41.44
681.4  35845.89  14926.14  41.64
682.8  36270.33  15185.17  41.87
684.1  36705.24  15452.74  42.10
685.5  37104.21  15701.46  42.32
686.8  37507.62  15951.30  42.53
688.2  37862.83  16201.85  42.79
689.5  38000.96  16357.64  43.05
690.9  38124.79  16497.10  43.27
692.2  38229.60  16624.64  43.49
693.6  38334.37  16738.33  43.66
694.9  38335.34  16799.32  43.82
696.2  38393.33  16893.27  44.00
697.6  38453.39  16997.97  44.20
698.9  38522.88  17092.06  44.37
700.3  38613.54  17181.63  44.50
701.6  38716.02  17289.16  44.66
703.0  38828.83  17399.47  44.81
704.3  38882.19  17490.68  44.98
705.6  38895.39  17565.10  45.16
707.0  38949.12  17656.33  45.33
708.3  38885.46  17695.14  45.51
709.6  38817.35  17717.71  45.64
711.0  38702.88  17742.67  45.84
712.3  38573.15  17742.95  46.00
713.6  38531.64  17789.35  46.17
714.9  38462.14  17814.50  46.32
716.3  38461.08  17886.76  46.51
717.6  38479.84  17952.84  46.66
718.9  38424.85  17987.11  46.81
720.2  38251.08  17975.72  46.99
721.6  38113.53  17980.27  47.18
722.9  37945.16  17966.79  47.35
724.2  37714.27  17899.65  47.46
725.5  37534.96  17874.61  47.62
726.8  37360.68  17858.34  47.80
728.1  37271.09  17881.25  47.98
729.5  37167.13  17905.40  48.18
730.8  37093.13  17923.33  48.32
732.1  36996.92  17926.83  48.45
733.4  36936.39  17944.81  48.58
734.7  36864.47  17970.60  48.75
736.0  36851.62  18020.02  48.90
737.3  36774.45  18033.65  49.04
738.6  36845.76  18127.03  49.20
739.9  37000.34  18241.87  49.30
741.2  37119.81  18347.06  49.43
742.5  37372.03  18518.00  49.55
743.8  37768.50  18766.44  49.69
745.1  38387.22  19132.30  49.84
746.4  39127.73  19575.01  50.03
747.7  39918.22  20040.80  50.20
749.0  40672.12  20505.42  50.42
750.3  41122.66  20819.74  50.63
751.6  41047.35  20863.73  50.83
752.9  40630.59  20703.61  50.96
754.2  40176.47  20521.69  51.08
755.4  39652.21  20298.02  51.19
756.7  39478.17  20245.85  51.28
758.0  39495.60  20288.22  51.37
759.3  39730.28  20469.72  51.52
760.6  40061.56  20683.64  51.63
761.9  40384.10  20894.32  51.74
763.1  40567.56  21052.95  51.90
764.4  40796.65  21227.88  52.03
765.7  40953.25  21367.23  52.17
767.0  41079.80  21492.23  52.32
768.2  41207.04  21598.53  52.41
769.5  41279.98  21692.92  52.55
770.8  41469.61  21843.63  52.67
772.0  41501.32  21926.06  52.83
773.3  41583.65  22031.24  52.98
774.6  41708.58  22138.32  53.08
775.8  41815.15  22262.54  53.24
777.1  41846.51  22330.82  53.36
778.4  41799.94  22360.34  53.49
779.6  41775.90  22418.82  53.66
780.9  41704.00  22426.13  53.77
782.1  41523.21  22383.00  53.90
783.4  41558.40  22447.91  54.02
784.6  41567.36  22506.52  54.14
785.9  41861.56  22695.46  54.22
787.1  42409.87  23074.91  54.41
788.4  42854.47  23466.07  54.76
789.6  42849.18  23581.99  55.03
790.9  42483.96  23422.34  55.13
792.1  42011.92  23226.85  55.29
793.4  41570.15  23045.53  55.44
794.6  41283.15  22957.17  55.61
795.8  41024.39  22857.35  55.72
797.1  40758.68  22762.15  55.85
798.3  40551.64  22708.07  56.00
799.5  40444.72  22708.98  56.15
800.8  40323.21  22688.09  56.27
802.0  40187.32  22679.55  56.43
803.2  40033.64  22660.27  56.60
804.5  39942.72  22664.96  56.74
805.7  39829.66  22669.18  56.92
806.9  39715.93  22653.96  57.04
808.1  39632.97  22656.04  57.16
809.4  39553.39  22682.06  57.35
810.6  39489.45  22683.27  57.44
811.8  39474.39  22716.18  57.55
813.0  39504.71  22784.40  57.68
814.2  39525.61  22856.05  57.83
815.4  39644.33  22994.90  58.00
816.6  39709.73  23081.10  58.12
817.9  39791.57  23189.76  58.28
819.1  39719.87  23226.48  58.48
820.3  39621.11  23213.33  58.59
821.5  39546.25  23209.77  58.69
822.7  39480.04  23224.57  58.83
823.9  39499.25  23279.34  58.94
825.1  39541.96  23345.29  59.04
826.3  39583.35  23419.31  59.16
827.5  39640.56  23492.99  59.27
828.7  39708.48  23587.97  59.40
829.9  39767.03  23670.31  59.52
831.0  39870.82  23760.44  59.59
832.2  39993.87  23860.11  59.66
833.4  40076.64  23961.00  59.79
834.6  40148.44  24052.50  59.91
835.8  40238.10  24149.16  60.02
837.0  40328.28  24250.68  60.13
838.1  40500.72  24384.26  60.21
839.3  40601.19  24472.07  60.27
840.5  40716.87  24579.01  60.37
841.7  40854.11  24707.93  60.48
842.9  40980.73  24814.67  60.55
844.0  41100.82  24930.95  60.66
845.2  41245.09  25046.73  60.73
846.4  41368.25  25186.99  60.88
847.5  41564.18  25345.87  60.98
848.7  41743.64  25518.43  61.13
849.9  41936.76  25693.57  61.27
851.0  42020.98  25807.65  61.42
852.2  42107.61  25905.79  61.52
853.3  42066.96  25957.63  61.71
854.5  42098.11  26012.10  61.79
855.6  42095.43  26048.80  61.88
856.8  42111.00  26084.63  61.94
857.9  42111.88  26134.26  62.06
859.1  42240.60  26253.28  62.15
860.2  42245.56  26299.80  62.25
861.4  42273.83  26371.64  62.38
862.5  42309.54  26420.65  62.45
863.7  42384.63  26525.03  62.58
864.8  42387.10  26564.53  62.67
865.9  42333.82  26571.66  62.77
867.1  42372.33  26630.39  62.85
868.2  42368.54  26662.37  62.93
869.3  42393.50  26736.57  63.07
870.5  42342.80  26725.56  63.12
871.6  42318.48  26752.11  63.22
872.7  42385.23  26828.51  63.30
873.9  42404.90  26875.13  63.38
875.0  42391.36  26878.97  63.41
876.1  42363.75  26930.00  63.57
877.2  42397.32  26966.77  63.60
878.3  42381.77  26992.85  63.69
879.4  42397.70  27059.42  63.82
880.5  42451.56  27119.76  63.88
881.7  42410.55  27130.13  63.97
882.8  42454.72  27209.61  64.09
883.9  42482.63  27286.03  64.23
885.0  42446.04  27288.26  64.29
886.1  42420.10  27337.59  64.44
887.2  42295.80  27301.59  64.55
888.3  42201.80  27295.23  64.68
889.4  42117.30  27264.82  64.74
890.5  42026.34  27244.33  64.83
891.6  41981.69  27225.09  64.85
892.7  41962.31  27258.31  64.96
893.8  41981.79  27288.92  65.00
894.9  41952.35  27307.22  65.09
896.0  41968.71  27337.94  65.14
897.0  41952.48  27373.75  65.25
898.1  41951.64  27406.80  65.33
899.2  41983.30  27439.68  65.36
900.3  41907.57  27415.04  65.42
901.4  41820.39  27396.32  65.51
902.4  41828.99  27431.43  65.58
903.5  41775.96  27409.49  65.61
904.6  41798.96  27439.52  65.65
905.7  41805.42  27473.69  65.72
906.7  41815.90  27488.01  65.74
907.8  41839.20  27555.76  65.86
908.9  41746.38  27526.44  65.94
909.9  41734.69  27551.08  66.01
911.0  41681.88  27525.08  66.04
912.1  41602.05  27503.90  66.11
913.1  41535.52  27496.70  66.20
914.2  41457.24  27421.08  66.14
915.2  41368.59  27449.86  66.35
916.3  41436.15  27478.04  66.31
917.3  41410.15  27477.45  66.35
918.4  41310.50  27456.22  66.46
919.4  41328.17  27466.04  66.46
920.5  41309.67  27472.29  66.50
921.5  41323.66  27526.86  66.61
922.6  41255.80  27495.44  66.65
923.6  41303.54  27559.82  66.73
924.7  41344.50  27583.07  66.72
925.7  41333.16  27603.22  66.78
926.7  41356.90  27648.79  66.85
927.8  41415.30  27722.50  66.94
928.8  41570.85  27809.39  66.90
929.9  41658.93  27909.78  67.00
930.9  41879.39  28036.81  66.95
931.9  42070.56  28154.68  66.92
932.9  42412.10  28369.34  66.89
934.0  42452.50  28421.97  66.95
935.0  42440.57  28441.38  67.01
936.0  42488.02  28428.00  66.91
937.0  42429.47  28446.49  67.04
938.1  42380.86  28437.06  67.10
939.1  42337.65  28417.38  67.12
940.1  42429.30  28475.59  67.11
941.1  42615.86  28625.46  67.17
942.1  42903.92  28780.91  67.08
943.1  43057.09  28865.37  67.04
944.1  43342.63  29035.66  66.99
945.2  43356.60  29100.57  67.12
946.2  43482.48  29188.85  67.13
947.2  43549.00  29216.35  67.09
948.2  43743.16  29321.65  67.03
949.2  43840.88  29365.38  66.98
950.2  43906.25  29430.07  67.03
951.2  44010.96  29468.21  66.96
952.2  44061.91  29572.18  67.12
953.2  44318.14  29651.90  66.91
954.2  44380.80  29719.86  66.97
955.2  44428.35  29758.19  66.98
956.2  44460.20  29740.33  66.89
957.2  44542.35  29794.95  66.89
958.2  44649.94  29831.86  66.81
959.2  44705.25  29896.74  66.88
960.1  44813.66  29932.51  66.79
961.1  44928.76  29982.68  66.73
962.1  44958.75  30031.88  66.80
963.1  44986.01  30063.64  66.83
964.1  45106.16  30157.94  66.86
965.1  45270.70  30264.87  66.85
966.1  45207.41  30248.44  66.91
967.0  45355.66  30371.97  66.96
968.0  45441.48  30391.33  66.88
969.0  45453.60  30482.16  67.06
970.0  45557.64  30477.71  66.90
971.0  45615.57  30495.44  66.85
971.9  45699.86  30595.68  66.95
972.9  45781.93  30691.76  67.04
973.9  45829.88  30744.96  67.08
974.9  45973.78  30868.24  67.14
975.8  45979.65  30921.79  67.25
976.8  46106.16  31025.42  67.29
977.8  46097.80  31029.21  67.31
978.8  46103.70  31158.02  67.58
979.7  46387.55  31159.72  67.17
980.7  46405.76  31297.70  67.44
981.7  46694.84  31408.14  67.26
982.6  46857.76  31500.96  67.23
983.6  47433.79  31758.31  66.95
984.6  47818.98  32072.53  67.07
985.5  48063.24  32335.53  67.28
986.5  48770.77  32798.41  67.25
987.5  50043.63  33411.30  66.76
988.4  50895.90  34115.55  67.03
989.4  52431.75  34821.34  66.41
990.4  53425.02  35675.07  66.78
991.3  55387.31  36674.92  66.22
992.3  55950.90  37587.53  67.18
993.2  58118.31  39044.73  67.18
994.2  59457.94  40043.45  67.35
995.2  60710.63  40585.66  66.85
996.1  61737.77  41525.27  67.26
997.1  61885.85  42082.38  68.00
998.0  61668.00  42391.04  68.74
999.0  61787.86  41721.86  67.52
1000.0  62252.49  41751.67  67.07
1000.9  62564.91  42287.06  67.59
1001.9  61626.12  41678.72  67.63
1002.8  61885.09  41981.51  67.84
1003.8  61970.58  41953.79  67.70
1004.8  62064.96  41741.73  67.25
961.5  55881.62  31808.05  56.92
965.5  54589.44  31388.93  57.50
969.5  52393.79  30675.82  58.55
973.4  50126.74  29886.71  59.62
977.4  48345.52  29326.27  60.66
981.4  47464.01  29372.46  61.88
985.3  47176.98  29576.30  62.69
989.3  47304.75  29895.00  63.20
993.3  47508.66  30219.43  63.61
997.2  47541.75  30383.86  63.91
1001.2  47520.33  30474.47  64.13
1005.2  47455.76  30521.27  64.32
1009.1  47529.68  30655.03  64.50
1013.1  47663.39  30844.20  64.71
1017.1  47785.75  31024.70  64.92
1021.0  47816.50  31152.49  65.15
1025.0  47819.30  31247.15  65.34
1029.0  47652.00  31237.33  65.55
1032.9  47495.63  31219.59  65.73
1036.9  47497.16  31279.13  65.85
1040.9  47608.97  31419.02  65.99
1044.8  47827.54  31605.36  66.08
1048.8  48004.98  31762.63  66.17
1052.7  48133.54  31891.28  66.26
1056.7  48188.20  31954.76  66.31
1060.7  48194.60  31996.99  66.39
1064.6  48198.22  32039.70  66.47
1068.6  48113.17  32005.67  66.52
1072.5  48026.55  31963.97  66.55
1076.5  47975.49  31961.67  66.62
1080.4  47966.69  31970.58  66.65
1084.4  48069.59  32030.76  66.63
1088.3  48170.15  32109.23  66.66
1092.3  48152.58  32100.32  66.66
1096.2  48142.77  32075.76  66.63
1100.2  48183.64  32081.06  66.58
1104.1  48079.94  31978.23  66.51
1108.1  48035.13  31910.24  66.43
1112.0  47943.86  31805.04  66.34
1116.0  47742.57  31632.77  66.26
1119.9  47581.47  31467.29  66.13
1123.9  47666.30  31434.93  65.95
1127.8  47639.04  31312.64  65.73
1131.8  47617.38  31151.83  65.42
1135.7  47659.94  30977.19  65.00
1139.6  47675.62  30736.17  64.47
1143.6  47638.82  30434.14  63.89
1147.5  47616.88  30123.38  63.26
1151.4  47500.80  29767.17  62.67
1155.4  47513.75  29567.46  62.23
1159.3  47522.52  29432.21  61.93
1163.2  47363.89  29228.29  61.71
1167.2  47347.50  29143.64  61.55
1171.1  47369.57  29102.14  61.44
1175.0  47314.40  29017.18  61.33
1179.0  47268.08  28942.35  61.23
1182.9  47358.68  28952.83  61.14
1186.8  47350.70  28906.92  61.05
1190.7  47139.70  28727.53  60.94
1194.7  46883.87  28546.17  60.89
1198.6  46652.76  28402.61  60.88
1202.5  46480.48  28299.77  60.89
1206.4  46340.80  28235.15  60.93
1210.3  46236.01  28205.87  61.00
1214.2  46114.66  28189.04  61.13
1218.2  45952.68  28165.40  61.29
1222.1  45800.88  28150.81  61.46
1226.0  45686.61  28146.85  61.61
1229.9  45598.02  28155.72  61.75
1233.8  45484.04  28148.74  61.89
1237.7  45416.66  28159.75  62.00
1241.6  45332.53  28144.30  62.08
1245.5  45166.97  28078.18  62.17
1249.4  45023.84  28033.20  62.26
1253.3  44894.25  27979.86  62.32
1257.2  44816.00  27934.96  62.33
1261.1  44716.86  27865.30  62.31
1265.0  44587.73  27776.44  62.30
1268.9  44400.64  27648.55  62.27
1272.8  44460.00  27674.45  62.25
1276.7  44653.74  27767.47  62.18
1280.6  44733.81  27783.05  62.11
1284.5  44649.07  27695.22  62.03
1288.4  44631.63  27623.41  61.89
1292.3  44511.50  27470.67  61.72
1296.2  44360.33  27286.56  61.51
1300.1  44197.71  27079.04  61.27
1303.9  43963.66  26818.52  61.00
1307.8  43715.49  26527.18  60.68
1311.7  43464.03  26204.51  60.29
1315.6  43214.30  25863.19  59.85
1319.5  42962.15  25489.03  59.33
1323.3  42734.84  25110.23  58.76
1327.2  42525.95  24729.37  58.15
1331.1  42285.13  24328.35  57.53
1335.0  41985.32  23880.51  56.88
1338.8  41775.29  23455.88  56.15
1342.7  41609.18  23032.61  55.35
1346.5  41242.98  22473.22  54.49
1350.4  40931.78  21924.89  53.56
1354.3  40517.39  21323.71  52.63
1358.1  40047.65  20738.55  51.78
