/*** Spectra Vista SIG Data ***/
name= AMB.sig
comm= Averaged Ref/Tar of files: AMB1,AMB2,AMB3
data=
346.4  509.60  113.81  22.33
347.9  536.51  114.21  21.29
349.5  577.20  110.66  19.17
351.1  620.88  116.90  18.83
352.6  679.94  121.44  17.86
354.2  723.22  124.35  17.19
355.7  777.89  132.46  17.03
357.3  842.60  133.15  15.80
358.8  838.80  137.47  16.39
360.4  904.00  139.76  15.46
361.9  943.76  141.62  15.01
363.5  997.20  138.50  13.89
365.1  1040.25  138.70  13.33
366.6  1087.54  143.16  13.16
368.2  1161.70  145.05  12.49
369.7  1204.79  146.71  12.18
371.3  1287.37  150.14  11.66
372.8  1354.56  151.39  11.18
374.4  1435.13  152.64  10.64
375.9  1463.02  158.00  10.80
377.4  1512.41  160.02  10.58
379.0  1578.52  160.82  10.19
380.5  1618.77  154.70  9.56
382.1  1669.58  159.96  9.58
383.6  1726.52  159.89  9.26
385.2  1809.50  158.40  8.75
386.7  1900.67  159.56  8.40
388.3  1991.93  163.77  8.22
389.8  2077.97  170.56  8.21
391.3  2163.95  177.50  8.20
392.9  2236.17  183.22  8.19
394.4  2293.88  194.67  8.49
395.9  2364.42  207.24  8.76
397.5  2493.56  217.91  8.74
399.0  2617.23  221.66  8.47
400.6  2691.33  223.00  8.29
402.1  2739.96  220.50  8.05
403.6  2797.88  221.85  7.93
405.1  2865.39  228.19  7.96
406.7  2979.20  238.34  8.00
408.2  3089.54  247.70  8.02
409.7  3183.04  255.36  8.02
411.3  3295.62  269.89  8.19
412.8  3391.47  280.61  8.27
414.3  3507.27  293.05  8.36
415.8  3622.50  306.33  8.46
417.4  3739.34  318.78  8.53
418.9  3830.42  332.95  8.69
420.4  3913.23  340.64  8.70
421.9  3978.48  343.96  8.65
423.5  4044.22  353.05  8.73
425.0  4110.68  362.60  8.82
426.5  4198.95  362.63  8.64
428.0  4314.36  372.46  8.63
429.5  4445.73  383.41  8.62
431.1  4599.50  394.48  8.58
432.6  4769.72  409.11  8.58
434.1  4937.63  419.91  8.50
435.6  5085.18  431.89  8.49
437.1  5233.80  448.24  8.56
438.6  5364.45  460.86  8.59
440.1  5501.44  477.92  8.69
441.6  5653.06  493.69  8.73
443.1  5799.60  513.54  8.85
444.7  5941.01  533.48  8.98
446.2  6051.88  552.07  9.12
447.7  6161.82  574.47  9.32
449.2  6292.08  595.58  9.47
450.7  6396.00  616.24  9.63
452.2  6529.70  635.61  9.73
453.7  6647.26  657.84  9.90
455.2  6815.62  677.07  9.93
456.7  7013.60  705.64  10.06
458.2  7232.90  731.16  10.11
459.7  7456.75  759.50  10.19
461.2  7667.16  783.66  10.22
462.7  7858.10  804.78  10.24
464.2  8041.02  825.94  10.27
465.7  8240.35  847.88  10.29
467.2  8402.63  865.74  10.30
468.7  8584.00  885.60  10.32
470.2  8698.25  905.77  10.41
471.7  8877.75  927.20  10.44
473.2  9159.71  955.56  10.43
474.6  9386.40  971.36  10.35
476.1  9450.96  980.57  10.38
477.6  9499.75  988.67  10.41
479.1  9557.87  998.74  10.45
480.6  9632.82  1007.81  10.46
482.1  9760.73  1023.90  10.49
483.6  9935.74  1046.53  10.53
485.1  10133.78  1071.81  10.58
486.6  10366.07  1108.00  10.69
488.0  10621.00  1145.52  10.79
489.5  10873.80  1189.29  10.94
491.0  11134.31  1238.62  11.12
492.5  11404.80  1292.54  11.33
494.0  11683.71  1353.78  11.59
495.4  11917.95  1420.32  11.92
496.9  12154.26  1489.20  12.25
498.4  12387.41  1565.00  12.63
499.9  12623.63  1652.01  13.09
501.4  12839.71  1739.18  13.55
502.8  13042.06  1837.97  14.09
504.3  13226.40  1939.68  14.67
505.8  13406.54  2046.07  15.26
507.2  13518.16  2156.15  15.95
508.7  13603.31  2262.87  16.63
510.2  13672.60  2374.46  17.37
511.6  13715.26  2489.21  18.15
513.1  13806.21  2612.51  18.92
514.6  13898.29  2744.18  19.74
516.0  13992.63  2877.67  20.57
517.5  14151.40  3024.96  21.38
519.0  14339.95  3184.64  22.21
520.5  14520.56  3343.85  23.03
521.9  14760.83  3511.81  23.79
523.4  15031.28  3685.09  24.52
524.8  15295.25  3860.64  25.24
526.3  15594.01  4032.25  25.86
527.8  15909.50  4208.24  26.45
529.2  16189.50  4363.21  26.95
530.7  16509.28  4521.25  27.39
532.1  16791.25  4665.87  27.79
533.6  17121.20  4810.41  28.10
535.0  17454.94  4953.80  28.38
536.5  17789.22  5081.99  28.57
538.0  18136.88  5211.13  28.73
539.4  18461.69  5329.37  28.87
540.9  18864.39  5462.76  28.96
542.3  19206.33  5578.07  29.04
543.8  19460.81  5671.33  29.14
545.2  19544.37  5714.31  29.24
546.6  19566.05  5736.24  29.32
548.1  19604.97  5760.81  29.38
549.5  19640.65  5781.53  29.44
551.0  19664.79  5794.99  29.47
552.4  19724.92  5814.02  29.48
553.9  19761.60  5817.98  29.44
555.3  19812.20  5818.18  29.37
556.8  19934.49  5832.38  29.26
558.2  20047.50  5838.30  29.12
559.6  20200.16  5842.80  28.92
561.1  20397.00  5854.55  28.70
562.5  20617.77  5866.22  28.45
564.0  20901.40  5887.96  28.17
565.4  21161.13  5895.41  27.86
566.8  21482.31  5909.06  27.51
568.3  21793.28  5912.39  27.13
569.7  22118.60  5914.33  26.74
571.1  22425.71  5908.20  26.35
572.6  22741.56  5891.62  25.91
574.0  23030.70  5875.54  25.51
575.4  23309.44  5862.15  25.15
576.9  23581.06  5845.22  24.79
578.3  23822.01  5823.92  24.45
579.7  24048.22  5806.40  24.14
581.1  24227.75  5782.55  23.87
582.6  24429.78  5762.51  23.59
584.0  24600.48  5742.37  23.34
585.4  24853.74  5742.44  23.10
586.8  25196.68  5765.81  22.88
588.3  25573.86  5794.15  22.66
589.7  25896.78  5823.17  22.49
591.1  26104.75  5826.59  22.32
592.5  26211.06  5810.70  22.17
594.0  26269.26  5791.83  22.05
595.4  26286.44  5765.08  21.93
596.8  26295.56  5737.45  21.82
598.2  26315.92  5711.91  21.71
599.6  26317.98  5681.46  21.59
601.0  26398.05  5665.65  21.46
602.4  26470.93  5641.65  21.31
603.9  26597.64  5625.95  21.15
605.3  26727.57  5604.45  20.97
606.7  26857.80  5578.08  20.77
608.1  27088.39  5561.03  20.53
609.5  27333.21  5545.08  20.29
610.9  27623.29  5537.89  20.05
612.3  27891.32  5519.61  19.79
613.7  28252.28  5515.21  19.52
615.1  28513.62  5485.75  19.24
616.5  28776.05  5463.85  18.99
617.9  29165.50  5471.58  18.76
619.3  29543.24  5485.46  18.57
620.7  29990.55  5517.92  18.40
622.1  30437.05  5547.88  18.23
623.5  30934.60  5587.15  18.06
624.9  31494.75  5647.01  17.93
626.3  31867.36  5681.50  17.83
627.7  31569.69  5610.99  17.77
629.1  31287.59  5544.77  17.72
630.5  31184.65  5517.02  17.69
631.9  31222.21  5509.26  17.65
633.3  31256.33  5488.21  17.56
634.7  31400.48  5464.52  17.40
636.1  31461.82  5383.55  17.11
637.5  31554.77  5326.40  16.88
638.9  31702.82  5278.81  16.65
640.2  31825.04  5225.41  16.42
641.6  31863.78  5155.49  16.18
643.0  31847.61  5068.98  15.92
644.4  31829.55  4987.35  15.67
645.8  31751.71  4884.73  15.38
647.2  31867.94  4820.12  15.13
648.5  31926.34  4748.29  14.87
649.9  31776.23  4652.91  14.64
651.3  31648.05  4575.72  14.46
652.7  31449.15  4490.04  14.28
654.1  31244.46  4356.17  13.94
655.5  31005.95  4221.95  13.62
656.8  30780.41  4082.13  13.26
658.2  30925.42  3991.83  12.91
659.6  31264.45  3929.33  12.57
660.9  31536.04  3852.33  12.22
662.3  31822.64  3774.09  11.86
663.7  32096.40  3698.80  11.52
665.0  32332.90  3619.94  11.20
666.4  32562.99  3545.19  10.89
667.8  32863.56  3497.88  10.64
669.1  33114.69  3454.69  10.43
670.5  33405.09  3428.13  10.26
671.9  33586.56  3410.34  10.15
673.2  33844.75  3417.06  10.10
674.6  34082.18  3430.48  10.07
676.0  34372.41  3465.77  10.08
677.3  34659.68  3517.92  10.15
678.7  34979.63  3598.05  10.29
680.0  35399.92  3715.72  10.50
681.4  35845.89  3867.62  10.79
682.8  36270.33  4066.49  11.21
684.1  36705.24  4324.63  11.78
685.5  37104.21  4631.70  12.48
686.8  37507.62  5016.76  13.38
688.2  37862.83  5447.78  14.39
689.5  38000.96  5912.66  15.56
690.9  38124.79  6434.90  16.88
692.2  38229.60  6994.48  18.30
693.6  38334.37  7586.91  19.79
694.9  38335.34  8185.53  21.35
696.2  38393.33  8807.16  22.94
697.6  38453.39  9432.52  24.53
698.9  38522.88  10059.46  26.11
700.3  38613.54  10679.29  27.66
701.6  38716.02  11292.49  29.17
703.0  38828.83  11892.93  30.63
704.3  38882.19  12448.57  32.02
705.6  38895.39  12979.45  33.37
707.0  38949.12  13498.83  34.66
708.3  38885.46  13962.88  35.91
709.6  38817.35  14409.76  37.12
711.0  38702.88  14824.16  38.30
712.3  38573.15  15212.96  39.44
713.6  38531.64  15612.97  40.52
714.9  38462.14  15977.36  41.54
716.3  38461.08  16372.70  42.57
717.6  38479.84  16749.24  43.53
718.9  38424.85  17073.02  44.43
720.2  38251.08  17334.79  45.32
721.6  38113.53  17592.36  46.16
722.9  37945.16  17813.92  46.95
724.2  37714.27  17994.49  47.71
725.5  37534.96  18189.05  48.46
726.8  37360.68  18359.14  49.14
728.1  37271.09  18547.42  49.76
729.5  37167.13  18713.15  50.35
730.8  37093.13  18884.01  50.91
732.1  36996.92  19023.47  51.42
733.4  36936.39  19166.43  51.89
734.7  36864.47  19285.83  52.32
736.0  36851.62  19426.07  52.71
737.3  36774.45  19519.68  53.08
738.6  36845.76  19684.21  53.42
739.9  37000.34  19882.14  53.74
741.2  37119.81  20046.57  54.01
742.5  37372.03  20264.25  54.22
743.8  37768.50  20573.25  54.47
745.1  38387.22  21001.08  54.71
746.4  39127.73  21475.39  54.89
747.7  39918.22  21949.93  54.99
749.0  40672.12  22419.87  55.12
750.3  41122.66  22680.56  55.15
751.6  41047.35  22674.24  55.24
752.9  40630.59  22494.98  55.36
754.2  40176.47  22273.75  55.44
755.4  39652.21  22032.50  55.56
756.7  39478.17  21975.40  55.66
758.0  39495.60  22028.55  55.77
759.3  39730.28  22208.22  55.90
760.6  40061.56  22429.79  55.99
761.9  40384.10  22635.54  56.05
763.1  40567.56  22760.94  56.11
764.4  40796.65  22894.46  56.12
765.7  40953.25  23003.07  56.17
767.0  41079.80  23093.72  56.22
768.2  41207.04  23172.35  56.23
769.5  41279.98  23220.77  56.25
770.8  41469.61  23338.79  56.28
772.0  41501.32  23365.80  56.30
773.3  41583.65  23413.16  56.30
774.6  41708.58  23481.48  56.30
775.8  41815.15  23535.29  56.28
777.1  41846.51  23556.24  56.29
778.4  41799.94  23528.84  56.29
779.6  41775.90  23530.74  56.33
780.9  41704.00  23484.80  56.31
782.1  41523.21  23407.65  56.37
783.4  41558.40  23412.48  56.34
784.6  41567.36  23436.14  56.38
785.9  41861.56  23602.32  56.38
787.1  42409.87  23936.07  56.44
788.4  42854.47  24187.46  56.44
789.6  42849.18  24130.14  56.31
790.9  42483.96  23868.30  56.18
792.1  42011.92  23608.79  56.20
793.4  41570.15  23383.57  56.25
794.6  41283.15  23211.51  56.23
795.8  41024.39  23066.85  56.23
797.1  40758.68  22922.58  56.24
798.3  40551.64  22827.26  56.29
799.5  40444.72  22758.43  56.27
800.8  40323.21  22695.32  56.28
802.0  40187.32  22627.12  56.30
803.2  40033.64  22543.35  56.31
804.5  39942.72  22494.92  56.32
805.7  39829.66  22421.35  56.29
806.9  39715.93  22358.33  56.30
808.1  39632.97  22313.57  56.30
809.4  39553.39  22286.39  56.35
810.6  39489.45  22239.19  56.32
811.8  39474.39  22243.08  56.35
813.0  39504.71  22268.97  56.37
814.2  39525.61  22299.31  56.42
815.4  39644.33  22367.57  56.42
816.6  39709.73  22397.01  56.40
817.9  39791.57  22428.67  56.37
819.1  39719.87  22395.45  56.38
820.3  39621.11  22325.04  56.35
821.5  39546.25  22279.89  56.34
822.7  39480.04  22257.70  56.38
823.9  39499.25  22269.23  56.38
825.1  39541.96  22275.77  56.33
826.3  39583.35  22317.60  56.38
827.5  39640.56  22346.41  56.37
828.7  39708.48  22377.44  56.35
829.9  39767.03  22429.03  56.40
831.0  39870.82  22479.96  56.38
832.2  39993.87  22549.79  56.38
833.4  40076.64  22595.64  56.38
834.6  40148.44  22659.38  56.44
835.8  40238.10  22707.72  56.43
837.0  40328.28  22774.03  56.47
838.1  40500.72  22871.56  56.47
839.3  40601.19  22931.85  56.48
840.5  40716.87  22998.78  56.48
841.7  40854.11  23089.55  56.52
842.9  40980.73  23179.97  56.56
844.0  41100.82  23260.04  56.59
845.2  41245.09  23346.81  56.61
846.4  41368.25  23430.55  56.64
847.5  41564.18  23561.09  56.69
848.7  41743.64  23662.41  56.69
849.9  41936.76  23760.72  56.66
851.0  42020.98  23799.27  56.64
852.2  42107.61  23830.94  56.60
853.3  42066.96  23817.54  56.62
854.5  42098.11  23819.08  56.58
855.6  42095.43  23820.11  56.59
856.8  42111.00  23839.20  56.61
857.9  42111.88  23836.62  56.60
859.1  42240.60  23912.16  56.61
860.2  42245.56  23920.94  56.62
861.4  42273.83  23936.71  56.62
862.5  42309.54  23961.63  56.63
863.7  42384.63  24004.41  56.63
864.8  42387.10  24016.25  56.66
865.9  42333.82  23986.02  56.66
867.1  42372.33  24009.16  56.66
868.2  42368.54  24001.89  56.65
869.3  42393.50  23995.47  56.60
870.5  42342.80  23968.50  56.61
871.6  42318.48  23957.49  56.61
872.7  42385.23  24004.30  56.63
873.9  42404.90  24006.77  56.61
875.0  42391.36  23983.58  56.58
876.1  42363.75  23973.26  56.59
877.2  42397.32  23998.78  56.60
878.3  42381.77  23974.65  56.57
879.4  42397.70  24001.82  56.61
880.5  42451.56  24003.17  56.54
881.7  42410.55  23988.99  56.56
882.8  42454.72  23996.80  56.52
883.9  42482.63  24023.58  56.55
885.0  42446.04  23969.95  56.47
886.1  42420.10  23961.41  56.49
887.2  42295.80  23856.87  56.40
888.3  42201.80  23801.35  56.40
889.4  42117.30  23736.60  56.36
890.5  42026.34  23685.55  56.36
891.6  41981.69  23632.93  56.29
892.7  41962.31  23638.10  56.33
893.8  41981.79  23641.59  56.31
894.9  41952.35  23630.87  56.33
896.0  41968.71  23637.57  56.32
897.0  41952.48  23622.89  56.31
898.1  41951.64  23641.02  56.35
899.2  41983.30  23620.24  56.26
900.3  41907.57  23581.42  56.27
901.4  41820.39  23542.36  56.29
902.4  41828.99  23552.52  56.31
903.5  41775.96  23511.41  56.28
904.6  41798.96  23509.77  56.24
905.7  41805.42  23519.26  56.26
906.7  41815.90  23499.12  56.20
907.8  41839.20  23534.55  56.25
908.9  41746.38  23489.14  56.27
909.9  41734.69  23485.97  56.27
911.0  41681.88  23437.31  56.23
912.1  41602.05  23388.94  56.22
913.1  41535.52  23362.91  56.25
914.2  41457.24  23289.92  56.18
915.2  41368.59  23288.69  56.30
916.3  41436.15  23286.52  56.20
917.3  41410.15  23262.69  56.18
918.4  41310.50  23216.64  56.20
919.4  41328.17  23194.87  56.12
920.5  41309.67  23187.41  56.13
921.5  41323.66  23215.79  56.18
922.6  41255.80  23149.03  56.11
923.6  41303.54  23173.69  56.11
924.7  41344.50  23184.17  56.08
925.7  41333.16  23154.97  56.02
926.7  41356.90  23208.13  56.12
927.8  41415.30  23191.98  56.00
928.8  41570.85  23263.27  55.96
929.9  41658.93  23318.45  55.97
930.9  41879.39  23395.22  55.86
931.9  42070.56  23506.31  55.87
932.9  42412.10  23665.16  55.80
934.0  42452.50  23691.22  55.81
935.0  42440.57  23709.53  55.87
936.0  42488.02  23686.84  55.75
937.0  42429.47  23682.15  55.82
938.1  42380.86  23659.06  55.82
939.1  42337.65  23653.65  55.87
940.1  42429.30  23664.91  55.77
941.1  42615.86  23774.99  55.79
942.1  42903.92  23901.89  55.71
943.1  43057.09  23978.38  55.69
944.1  43342.63  24110.39  55.63
945.2  43356.60  24142.55  55.68
946.2  43482.48  24163.38  55.57
947.2  43549.00  24201.62  55.57
948.2  43743.16  24265.19  55.47
949.2  43840.88  24306.32  55.44
950.2  43906.25  24330.85  55.42
951.2  44010.96  24378.81  55.39
952.2  44061.91  24413.95  55.41
953.2  44318.14  24492.04  55.26
954.2  44380.80  24552.15  55.32
955.2  44428.35  24518.55  55.19
956.2  44460.20  24534.52  55.18
957.2  44542.35  24558.43  55.14
958.2  44649.94  24593.89  55.08
959.2  44705.25  24648.66  55.14
960.1  44813.66  24672.19  55.06
961.1  44928.76  24714.01  55.01
962.1  44958.75  24704.75  54.95
963.1  44986.01  24727.10  54.97
964.1  45106.16  24806.21  55.00
965.1  45270.70  24860.52  54.92
966.1  45207.41  24902.76  55.09
967.0  45355.66  24920.66  54.94
968.0  45441.48  24950.55  54.91
969.0  45453.60  25020.88  55.05
970.0  45557.64  25050.82  54.99
971.0  45615.57  25072.61  54.97
971.9  45699.86  25119.57  54.97
972.9  45781.93  25125.15  54.88
973.9  45829.88  25171.77  54.92
974.9  45973.78  25183.68  54.78
975.8  45979.65  25241.50  54.90
976.8  46106.16  25193.90  54.64
977.8  46097.80  25248.13  54.77
978.8  46103.70  25328.66  54.94
979.7  46387.55  25336.53  54.62
980.7  46405.76  25375.37  54.68
981.7  46694.84  25477.82  54.56
982.6  46857.76  25650.14  54.74
983.6  47433.79  25905.46  54.61
984.6  47818.98  26026.73  54.43
985.5  48063.24  26403.84  54.94
986.5  48770.77  26727.75  54.80
987.5  50043.63  27178.76  54.31
988.4  50895.90  27827.36  54.68
989.4  52431.75  28146.70  53.68
990.4  53425.02  28863.14  54.03
991.3  55387.31  29426.28  53.13
992.3  55950.90  30127.40  53.85
993.2  58118.31  30517.72  52.51
994.2  59457.94  30935.00  52.03
995.2  60710.63  31707.55  52.23
996.1  61737.77  32030.29  51.88
997.1  61885.85  32571.50  52.63
998.0  61668.00  31701.92  51.41
999.0  61787.86  31749.08  51.38
1000.0  62252.49  32251.29  51.81
1000.9  62564.91  31426.74  50.23
1001.9  61626.12  31732.05  51.49
1002.8  61885.09  31109.80  50.27
1003.8  61970.58  30839.82  49.77
1004.8  62064.96  30667.39  49.41
961.5  55881.62  27650.77  49.48
965.5  54589.44  27323.15  50.05
969.5  52393.79  26680.23  50.92
973.4  50126.74  25889.80  51.65
977.4  48345.52  25191.65  52.11
981.4  47464.01  24991.46  52.65
985.3  47176.98  25026.44  53.05
989.3  47304.75  25174.05  53.22
993.3  47508.66  25340.67  53.34
997.2  47541.75  25382.93  53.39
1001.2  47520.33  25391.95  53.43
1005.2  47455.76  25386.33  53.49
1009.1  47529.68  25453.78  53.55
1013.1  47663.39  25586.32  53.68
1017.1  47785.75  25694.62  53.77
1021.0  47816.50  25736.13  53.82
1025.0  47819.30  25759.15  53.87
1029.0  47652.00  25692.37  53.92
1032.9  47495.63  25635.52  53.97
1036.9  47497.16  25661.97  54.03
1040.9  47608.97  25744.11  54.07
1044.8  47827.54  25880.57  54.11
1048.8  48004.98  26004.13  54.17
1052.7  48133.54  26097.25  54.22
1056.7  48188.20  26131.58  54.23
1060.7  48194.60  26142.30  54.24
1064.6  48198.22  26160.52  54.28
1068.6  48113.17  26119.71  54.29
1072.5  48026.55  26069.42  54.28
1076.5  47975.49  26047.95  54.29
1080.4  47966.69  26039.64  54.29
1084.4  48069.59  26068.25  54.23
1088.3  48170.15  26118.46  54.22
1092.3  48152.58  26096.41  54.20
1096.2  48142.77  26075.60  54.16
1100.2  48183.64  26078.27  54.12
1104.1  48079.94  25999.63  54.08
1108.1  48035.13  25941.55  54.01
1112.0  47943.86  25849.61  53.92
1116.0  47742.57  25697.17  53.82
1119.9  47581.47  25555.54  53.71
1123.9  47666.30  25529.45  53.56
1127.8  47639.04  25438.72  53.40
1131.8  47617.38  25318.72  53.17
1135.7  47659.94  25191.83  52.86
1139.6  47675.62  25009.23  52.46
1143.6  47638.82  24782.14  52.02
1147.5  47616.88  24559.09  51.58
1151.4  47500.80  24305.81  51.17
1155.4  47513.75  24184.55  50.90
1159.3  47522.52  24120.01  50.75
1163.2  47363.89  23986.75  50.64
1167.2  47347.50  23948.10  50.58
1171.1  47369.57  23931.96  50.52
1175.0  47314.40  23870.58  50.45
1179.0  47268.08  23839.99  50.44
1182.9  47358.68  23866.79  50.40
1186.8  47350.70  23842.05  50.35
1190.7  47139.70  23712.57  50.30
1194.7  46883.87  23565.95  50.26
1198.6  46652.76  23449.97  50.26
1202.5  46480.48  23373.22  50.29
1206.4  46340.80  23309.64  50.30
1210.3  46236.01  23269.84  50.33
1214.2  46114.66  23239.20  50.39
1218.2  45952.68  23177.26  50.44
1222.1  45800.88  23123.68  50.49
1226.0  45686.61  23101.39  50.56
1229.9  45598.02  23077.26  50.61
1233.8  45484.04  23037.90  50.65
1237.7  45416.66  23017.45  50.68
1241.6  45332.53  22988.45  50.71
1245.5  45166.97  22919.32  50.74
1249.4  45023.84  22852.85  50.76
1253.3  44894.25  22798.95  50.78
1257.2  44816.00  22760.18  50.79
1261.1  44716.86  22699.12  50.76
1265.0  44587.73  22627.50  50.75
1268.9  44400.64  22517.83  50.72
1272.8  44460.00  22523.55  50.66
1276.7  44653.74  22593.44  50.60
1280.6  44733.81  22606.04  50.53
1284.5  44649.07  22523.76  50.45
1288.4  44631.63  22460.94  50.33
1292.3  44511.50  22341.92  50.19
1296.2  44360.33  22201.43  50.05
1300.1  44197.71  22040.83  49.87
1303.9  43963.66  21831.18  49.66
1307.8  43715.49  21605.16  49.42
1311.7  43464.03  21355.89  49.13
1315.6  43214.30  21098.69  48.82
1319.5  42962.15  20813.86  48.45
1323.3  42734.84  20522.29  48.02
1327.2  42525.95  20235.47  47.58
1331.1  42285.13  19930.97  47.13
1335.0  41985.32  19582.51  46.64
1338.8  41775.29  19267.68  46.12
1342.7  41609.18  18965.82  45.58
1346.5  41242.98  18554.89  44.99
1350.4  40931.78  18155.43  44.36
1354.3  40517.39  17703.32  43.69
1358.1  40047.65  17256.74  43.09
