/*** Spectra Vista SIG Data ***/
name= D.sig
comm= SIG file reprocesed for matching/overlap;Averaged Ref/Tar of files: D11,D12,D13
data=
346.4  468.20  77.29  16.51
347.9  473.76  74.05  15.63
349.5  521.04  79.04  15.17
351.1  558.48  80.29  14.38
352.6  585.06  80.96  13.84
354.2  625.05  81.16  12.98
355.7  673.50  87.11  12.93
357.3  724.71  89.69  12.38
358.8  751.43  91.34  12.16
360.4  798.47  99.43  12.45
361.9  821.87  92.40  11.24
363.5  851.78  92.34  10.84
365.1  887.68  88.31  9.95
366.6  918.37  90.22  9.82
368.2  973.68  89.98  9.24
369.7  1008.89  91.85  9.10
371.3  1073.36  88.24  8.22
372.8  1148.72  90.75  7.90
374.4  1191.49  93.90  7.88
375.9  1247.87  90.47  7.25
377.4  1278.23  94.10  7.36
379.0  1330.29  99.72  7.50
380.5  1360.26  88.22  6.49
382.1  1412.49  92.98  6.58
383.6  1460.03  96.01  6.58
385.2  1529.00  85.43  5.59
386.7  1608.26  96.39  5.99
388.3  1679.42  90.22  5.37
389.8  1759.55  93.70  5.33
391.3  1843.67  98.78  5.36
392.9  1897.62  103.94  5.48
394.4  1955.58  106.43  5.44
395.9  2019.02  114.72  5.68
397.5  2131.80  118.00  5.54
399.0  2240.25  118.66  5.30
400.6  2303.62  110.94  4.82
402.1  2342.64  105.26  4.49
403.6  2375.92  102.61  4.32
405.1  2451.81  97.19  3.96
406.7  2542.40  97.06  3.82
408.2  2650.73  102.17  3.85
409.7  2746.24  106.62  3.88
411.3  2843.51  108.32  3.81
412.8  2936.43  116.92  3.98
414.3  3034.90  116.17  3.83
415.8  3152.50  117.67  3.73
417.4  3253.58  126.84  3.90
418.9  3339.60  130.55  3.91
420.4  3424.70  122.30  3.57
421.9  3487.22  124.55  3.57
423.5  3546.87  122.67  3.46
425.0  3613.98  121.66  3.37
426.5  3695.85  123.27  3.34
428.0  3801.23  122.61  3.23
429.5  3926.30  120.61  3.07
431.1  4071.24  121.00  2.97
432.6  4225.66  127.91  3.03
434.1  4373.60  127.31  2.91
435.6  4514.36  133.13  2.95
437.1  4642.95  131.56  2.83
438.6  4769.06  137.81  2.89
440.1  4906.69  139.04  2.83
441.6  5042.30  140.71  2.79
443.1  5179.95  147.42  2.85
444.7  5318.34  154.53  2.91
446.2  5433.01  154.09  2.84
447.7  5551.25  156.78  2.82
449.2  5676.48  159.26  2.81
450.7  5788.64  159.74  2.76
452.2  5916.62  156.94  2.65
453.7  6028.91  156.95  2.60
455.2  6201.73  159.40  2.57
456.7  6390.56  162.39  2.54
458.2  6607.30  165.43  2.50
459.7  6823.25  171.03  2.51
461.2  7031.76  175.56  2.50
462.7  7219.07  175.66  2.43
464.2  7396.86  183.00  2.47
465.7  7583.22  186.75  2.46
467.2  7742.35  191.73  2.48
468.7  7912.00  196.27  2.48
470.2  8015.91  208.94  2.61
471.7  8177.13  217.87  2.66
473.2  8446.52  219.34  2.60
474.6  8688.33  211.45  2.43
476.1  8747.12  204.93  2.34
477.6  8779.39  204.10  2.32
479.1  8829.54  204.68  2.32
480.6  8916.06  201.51  2.26
482.1  9046.91  205.39  2.27
483.6  9204.08  205.19  2.23
485.1  9394.00  206.45  2.20
486.6  9626.34  210.00  2.18
488.0  9867.00  214.50  2.17
489.5  10130.90  217.92  2.15
491.0  10387.73  222.53  2.14
492.5  10649.88  227.02  2.13
494.0  10928.34  234.35  2.14
495.4  11158.95  239.80  2.15
496.9  11406.10  244.49  2.14
498.4  11649.48  251.39  2.16
499.9  11878.23  252.59  2.13
501.4  12101.58  260.12  2.15
502.8  12308.24  268.95  2.19
504.3  12497.40  270.72  2.17
505.8  12681.02  276.56  2.18
507.2  12808.72  281.81  2.20
508.7  12896.48  283.23  2.20
510.2  12964.78  290.91  2.24
511.6  13008.39  292.30  2.25
513.1  13093.74  295.21  2.25
514.6  13195.49  291.40  2.21
516.0  13281.41  293.28  2.21
517.5  13429.99  299.86  2.23
519.0  13603.01  301.50  2.22
520.5  13772.72  306.35  2.22
521.9  13993.28  310.46  2.22
523.4  14243.35  319.21  2.24
524.8  14493.24  326.09  2.25
526.3  14778.04  332.32  2.25
527.8  15074.01  338.67  2.25
529.2  15339.71  346.58  2.26
530.7  15629.94  354.79  2.27
532.1  15903.48  364.86  2.29
533.6  16214.37  368.83  2.27
535.0  16534.98  382.30  2.31
536.5  16856.03  391.29  2.32
538.0  17178.24  400.87  2.33
539.4  17501.02  414.69  2.37
540.9  17879.62  422.94  2.37
542.3  18237.67  433.86  2.38
543.8  18504.51  436.59  2.36
545.2  18600.74  433.66  2.33
546.6  18637.00  438.70  2.35
548.1  18690.38  444.78  2.38
549.5  18745.60  445.41  2.38
551.0  18790.92  453.50  2.41
552.4  18868.34  457.81  2.43
553.9  18922.09  461.10  2.44
555.3  18999.63  466.13  2.45
556.8  19143.87  472.20  2.47
558.2  19276.31  479.93  2.49
559.6  19441.66  486.50  2.50
561.1  19660.88  493.78  2.51
562.5  19883.82  509.81  2.56
564.0  20177.05  518.82  2.57
565.4  20444.07  531.09  2.60
566.8  20774.24  548.87  2.64
568.3  21077.79  564.00  2.68
569.7  21403.31  581.52  2.72
571.1  21706.83  601.72  2.77
572.6  22010.94  618.84  2.81
574.0  22299.75  641.52  2.88
575.4  22570.31  662.85  2.94
576.9  22820.49  687.92  3.01
578.3  23040.88  711.19  3.09
579.7  23243.15  735.57  3.16
581.1  23410.31  761.92  3.25
582.6  23592.46  793.09  3.36
584.0  23735.52  823.41  3.47
585.4  23971.18  853.00  3.56
586.8  24286.87  888.06  3.66
588.3  24642.54  924.46  3.75
589.7  24935.04  960.02  3.85
591.1  25126.37  993.76  3.96
592.5  25213.30  1032.61  4.10
594.0  25248.06  1070.34  4.24
595.4  25246.58  1112.38  4.41
596.8  25248.80  1152.87  4.57
598.2  25256.70  1193.98  4.73
599.6  25254.00  1237.59  4.90
601.0  25321.45  1286.25  5.08
602.4  25392.58  1329.83  5.24
603.9  25508.50  1383.41  5.42
605.3  25652.08  1440.68  5.62
606.7  25770.60  1493.52  5.80
608.1  26003.60  1559.73  6.00
609.5  26249.20  1625.73  6.19
610.9  26543.12  1694.61  6.38
612.3  26820.62  1769.34  6.60
613.7  27191.20  1851.89  6.81
615.1  27470.34  1938.17  7.06
616.5  27748.85  2018.23  7.27
617.9  28163.94  2105.68  7.48
619.3  28559.37  2192.43  7.68
620.7  29021.55  2290.72  7.89
622.1  29524.34  2358.54  7.99
623.5  30070.32  2412.09  8.02
624.9  30686.25  2466.66  8.04
626.3  31117.56  2523.49  8.11
627.7  30854.43  2556.86  8.29
629.1  30617.27  2627.28  8.58
630.5  30534.25  2715.69  8.89
631.9  30583.88  2813.07  9.20
633.3  30636.73  2921.27  9.54
634.7  30802.72  3032.07  9.84
636.1  30887.16  3122.22  10.11
637.5  30991.21  3219.18  10.39
638.9  31137.59  3323.89  10.67
640.2  31275.86  3419.10  10.93
641.6  31334.94  3480.67  11.11
643.0  31307.82  3533.57  11.29
644.4  31297.86  3569.51  11.40
645.8  31223.60  3577.87  11.46
647.2  31327.01  3591.71  11.47
648.5  31378.61  3569.43  11.38
649.9  31215.99  3499.32  11.21
651.3  31061.55  3379.94  10.88
652.7  30880.50  3221.84  10.43
654.1  30705.72  3142.24  10.23
655.5  30448.41  3100.28  10.18
656.8  30219.54  3060.40  10.13
658.2  30347.48  3052.77  10.06
659.6  30667.01  3039.19  9.91
660.9  30915.41  3002.49  9.71
662.3  31175.28  2963.86  9.51
663.7  31418.10  2917.60  9.29
665.0  31622.76  2858.30  9.04
666.4  31821.65  2799.31  8.80
667.8  32088.83  2755.89  8.59
669.1  32304.87  2714.39  8.40
670.5  32567.66  2689.56  8.26
671.9  32723.64  2660.16  8.13
673.2  32957.22  2661.77  8.08
674.6  33165.65  2669.03  8.05
676.0  33416.99  2702.26  8.09
677.3  33670.84  2748.08  8.16
678.7  33959.63  2833.05  8.34
680.0  34360.72  2961.43  8.62
681.4  34770.40  3132.89  9.01
682.8  35166.95  3365.79  9.57
684.1  35575.02  3663.81  10.30
685.5  35948.61  4037.80  11.23
686.8  36307.14  4493.27  12.38
688.2  36654.12  5032.70  13.73
689.5  36792.82  5613.41  15.26
690.9  36894.22  6252.18  16.95
692.2  37000.50  6948.24  18.78
693.6  37086.31  7663.63  20.66
694.9  37102.94  8353.27  22.51
696.2  37172.03  9037.28  24.31
697.6  37238.58  9697.25  26.04
698.9  37321.68  10350.91  27.73
700.3  37412.04  10971.21  29.33
701.6  37521.51  11577.51  30.86
703.0  37648.39  12155.98  32.29
704.3  37727.46  12666.25  33.57
705.6  37779.39  13143.13  34.79
707.0  37853.11  13612.66  35.96
708.3  37804.36  13968.19  36.95
709.6  37779.31  14307.30  37.87
711.0  37700.05  14588.72  38.70
712.3  37603.29  14833.56  39.45
713.6  37599.66  15117.48  40.21
714.9  37564.50  15358.39  40.89
716.3  37606.65  15614.27  41.52
717.6  37655.10  15857.48  42.11
718.9  37643.31  16037.01  42.60
720.2  37519.65  16122.36  42.97
721.6  37437.79  16244.87  43.39
722.9  37295.06  16370.31  43.89
724.2  37099.21  16398.63  44.20
725.5  36957.59  16481.26  44.60
726.8  36833.83  16513.10  44.83
728.1  36764.75  16571.27  45.07
729.5  36694.32  16622.08  45.30
730.8  36660.60  16671.74  45.48
732.1  36590.42  16689.27  45.61
733.4  36549.03  16710.64  45.72
734.7  36509.02  16715.95  45.79
736.0  36510.50  16744.37  45.86
737.3  36452.29  16747.13  45.94
738.6  36538.42  16834.26  46.07
739.9  36706.85  16999.01  46.31
741.2  36841.35  17097.08  46.41
742.5  37078.82  17269.56  46.58
743.8  37494.19  17536.75  46.77
745.1  38118.44  17894.10  46.94
746.4  38876.11  18252.18  46.95
747.7  39639.96  18592.96  46.90
749.0  40400.48  18940.62  46.88
750.3  40850.46  19119.64  46.80
751.6  40764.46  19083.02  46.81
752.9  40356.61  18931.18  46.91
754.2  39863.99  18771.37  47.09
755.4  39350.05  18545.49  47.13
756.7  39155.03  18526.96  47.32
758.0  39142.09  18594.22  47.50
759.3  39351.46  18759.74  47.67
760.6  39645.76  18990.05  47.90
761.9  39928.94  19190.09  48.06
763.1  40078.15  19278.43  48.10
764.4  40287.45  19425.94  48.22
765.7  40433.25  19535.53  48.32
767.0  40515.07  19618.17  48.42
768.2  40595.52  19680.64  48.48
769.5  40644.33  19733.55  48.55
770.8  40787.04  19840.50  48.64
772.0  40799.41  19847.27  48.65
773.3  40833.29  19914.36  48.77
774.6  40907.98  19995.54  48.88
775.8  40955.53  20067.89  49.00
777.1  40964.33  20096.97  49.06
778.4  40867.87  20076.97  49.13
779.6  40816.98  20090.68  49.22
780.9  40688.00  20080.53  49.35
782.1  40484.72  19991.63  49.38
783.4  40464.32  20017.37  49.47
784.6  40463.12  20054.94  49.56
785.9  40670.74  20257.32  49.81
787.1  41171.80  20578.68  49.98
788.4  41528.97  20734.92  49.93
789.6  41482.13  20594.18  49.65
790.9  41134.16  20331.69  49.43
792.1  40655.28  20112.75  49.47
793.4  40180.32  19918.91  49.57
794.6  39846.60  19797.70  49.68
795.8  39587.54  19709.26  49.79
797.1  39290.10  19581.00  49.84
798.3  39054.26  19518.51  49.98
799.5  38943.25  19484.14  50.03
800.8  38778.22  19437.30  50.12
802.0  38618.88  19356.45  50.12
803.2  38465.20  19260.62  50.07
804.5  38332.71  19210.98  50.12
805.7  38219.65  19151.88  50.11
806.9  38073.35  19088.26  50.14
808.1  37984.05  19077.94  50.23
809.4  37906.28  19084.73  50.35
810.6  37824.15  19060.86  50.39
811.8  37796.29  19073.42  50.46
813.0  37827.58  19101.47  50.50
814.2  37840.50  19105.36  50.49
815.4  37955.24  19164.41  50.49
816.6  38027.91  19164.77  50.40
817.9  38102.35  19183.72  50.35
819.1  38072.96  19105.42  50.18
820.3  37949.69  18987.21  50.03
821.5  37894.61  18897.22  49.87
822.7  37866.54  18857.97  49.80
823.9  37906.28  18828.78  49.67
825.1  37943.15  18784.82  49.51
826.3  38020.73  18778.70  49.39
827.5  38108.05  18756.92  49.22
828.7  38176.32  18732.48  49.07
829.9  38262.68  18719.82  48.92
831.0  38386.63  18737.19  48.81
832.2  38533.16  18761.19  48.69
833.4  38634.36  18781.83  48.61
834.6  38746.88  18805.00  48.53
835.8  38872.58  18830.07  48.44
837.0  39026.76  18896.46  48.42
838.1  39200.00  18989.30  48.44
839.3  39334.99  19040.40  48.41
840.5  39499.16  19100.13  48.36
841.7  39675.29  19212.77  48.43
842.9  39834.34  19302.55  48.46
844.0  40002.80  19349.12  48.37
845.2  40188.33  19413.49  48.31
846.4  40315.24  19442.72  48.23
847.5  40575.08  19538.75  48.15
848.7  40794.29  19624.55  48.11
849.9  41043.27  19698.02  47.99
851.0  41176.72  19691.70  47.82
852.2  41283.01  19716.58  47.76
853.3  41336.03  19691.86  47.64
854.5  41385.60  19677.32  47.55
855.6  41408.01  19680.31  47.53
856.8  41491.09  19713.79  47.51
857.9  41535.42  19714.76  47.46
859.1  41657.80  19824.29  47.59
860.2  41711.76  19824.71  47.53
861.4  41789.90  19832.64  47.46
862.5  41857.52  19849.49  47.42
863.7  41978.22  19931.57  47.48
864.8  42001.40  19910.99  47.41
865.9  42003.19  19866.44  47.30
867.1  42077.89  19873.27  47.23
868.2  42118.25  19870.24  47.18
869.3  42153.63  19891.34  47.19
870.5  42092.46  19818.15  47.08
871.6  42122.53  19822.65  47.06
872.7  42223.14  19881.45  47.09
873.9  42262.83  19886.16  47.05
875.0  42247.20  19836.76  46.95
876.1  42225.11  19810.83  46.92
877.2  42279.84  19804.74  46.84
878.3  42302.12  19763.82  46.72
879.4  42284.06  19738.51  46.68
880.5  42343.92  19719.65  46.57
881.7  42326.05  19646.81  46.42
882.8  42351.34  19635.31  46.36
883.9  42430.09  19609.80  46.22
885.0  42357.32  19549.08  46.15
886.1  42357.47  19500.78  46.04
887.2  42241.92  19401.59  45.93
888.3  42147.85  19317.09  45.83
889.4  42045.32  19221.06  45.72
890.5  41945.29  19169.85  45.70
891.6  41864.40  19115.67  45.66
892.7  41844.69  19063.69  45.56
893.8  41881.85  19078.50  45.55
894.9  41879.31  19056.13  45.50
896.0  41812.69  18981.52  45.40
897.0  41850.92  18943.86  45.27
898.1  41821.61  18930.40  45.26
899.2  41852.54  18915.37  45.20
900.3  41747.94  18830.08  45.10
901.4  41622.41  18716.73  44.97
902.4  41658.53  18717.77  44.93
903.5  41604.82  18653.72  44.84
904.6  41550.72  18623.99  44.82
905.7  41565.54  18600.23  44.75
906.7  41536.49  18553.16  44.67
907.8  41558.34  18528.05  44.58
908.9  41493.73  18450.29  44.47
909.9  41451.58  18410.78  44.42
911.0  41358.23  18315.18  44.28
912.1  41297.17  18224.91  44.13
913.1  41189.72  18150.22  44.06
914.2  41099.85  18013.78  43.83
915.2  41068.89  17954.03  43.72
916.3  41034.15  17915.80  43.66
917.3  40975.74  17851.79  43.57
918.4  40862.80  17685.51  43.28
919.4  40836.29  17610.67  43.13
920.5  40782.84  17551.36  43.04
921.5  40833.45  17493.20  42.84
922.6  40729.18  17343.52  42.58
923.6  40739.49  17293.35  42.45
924.7  40774.75  17230.10  42.26
925.7  40746.72  17103.78  41.98
926.7  40808.40  17016.66  41.70
927.8  40839.01  16928.15  41.45
928.8  40966.59  16876.01  41.19
929.9  41048.46  16833.90  41.01
930.9  41217.18  16786.77  40.73
931.9  41378.61  16785.17  40.56
932.9  41679.25  16843.86  40.41
934.0  41702.58  16759.15  40.19
935.0  41757.18  16640.03  39.85
936.0  41670.71  16497.72  39.59
937.0  41632.50  16378.62  39.34
938.1  41580.55  16269.09  39.13
939.1  41508.45  16145.11  38.90
940.1  41591.64  16015.09  38.51
941.1  41779.29  15993.25  38.28
942.1  41991.60  15946.81  37.98
943.1  42156.63  15892.02  37.70
944.1  42391.18  15862.73  37.42
945.2  42445.20  15747.25  37.10
946.2  42493.04  15639.27  36.80
947.2  42572.63  15536.40  36.49
948.2  42750.54  15441.32  36.12
949.2  42846.38  15330.03  35.78
950.2  42880.60  15179.62  35.40
951.2  42968.52  15070.16  35.07
952.2  43001.40  14955.58  34.78
953.2  43164.71  14893.97  34.50
954.2  43310.48  14801.64  34.18
955.2  43368.34  14678.36  33.85
956.2  43301.73  14569.59  33.65
957.2  43392.87  14449.39  33.30
958.2  43492.10  14385.39  33.08
959.2  43506.45  14352.30  32.99
960.1  43588.22  14299.07  32.80
961.1  43692.83  14239.34  32.59
962.1  43658.44  14233.38  32.60
963.1  43782.00  14168.34  32.36
964.1  43817.42  14160.03  32.32
965.1  43908.74  14164.36  32.26
966.1  44007.38  14106.49  32.05
967.0  44141.86  14134.03  32.02
968.0  44131.86  14030.18  31.79
969.0  44255.20  14038.40  31.72
970.0  44255.36  14038.11  31.72
971.0  44316.83  13977.84  31.54
971.9  44400.90  13912.28  31.33
972.9  44577.14  13857.52  31.09
973.9  44494.78  13775.49  30.96
974.9  44573.29  13602.71  30.52
975.8  44702.44  13457.09  30.10
976.8  44666.28  13358.89  29.91
977.8  44950.93  13324.93  29.64
978.8  44877.90  13166.00  29.34
979.7  45104.10  13137.64  29.13
981.4  47578.80  15693.80  32.98
985.3  47203.20  15415.34  32.66
989.3  47137.31  15430.10  32.73
993.3  47133.16  15645.75  33.19
997.2  47029.21  15852.13  33.71
1001.2  46955.35  16046.81  34.17
1005.2  46914.32  16230.17  34.60
1009.1  47038.13  16448.22  34.97
1013.1  47236.75  16719.04  35.39
1017.1  47375.30  16990.36  35.86
1021.0  47429.61  17224.71  36.32
1025.0  47461.87  17448.33  36.76
1029.0  47354.18  17625.83  37.22
1032.9  47271.77  17803.98  37.66
1036.9  47308.70  18031.09  38.11
1040.9  47476.08  18312.71  38.57
1044.8  47747.63  18627.62  39.01
1048.8  47970.59  18916.11  39.43
1052.7  48104.60  19165.00  39.84
1056.7  48183.46  19355.26  40.17
1060.7  48250.82  19500.53  40.41
1064.6  48272.17  19601.90  40.61
1068.6  48190.54  19613.29  40.70
1072.5  48116.11  19597.22  40.73
1076.5  48076.67  19569.69  40.71
1080.4  48048.88  19510.26  40.61
1084.4  48150.59  19460.59  40.42
1088.3  48279.53  19397.07  40.18
1092.3  48252.92  19252.11  39.90
1096.2  48221.83  19096.21  39.60
1100.2  48245.69  18954.36  39.29
1104.1  48124.97  18740.97  38.94
1108.1  48059.38  18550.09  38.60
1112.0  47955.87  18314.87  38.19
1116.0  47754.46  17995.82  37.68
1119.9  47569.76  17648.07  37.10
1123.9  47623.80  17322.31  36.37
1127.8  47592.96  16847.36  35.40
1131.8  47556.42  16245.84  34.16
1135.7  47568.82  15546.19  32.68
1139.6  47554.30  14769.74  31.06
1143.6  47510.71  14025.75  29.52
1147.5  47481.98  13396.77  28.21
1151.4  47337.52  12862.33  27.17
1155.4  47322.86  12514.44  26.44
1159.3  47329.81  12286.04  25.96
1163.2  47159.49  12082.43  25.62
1167.2  47113.86  11973.46  25.41
1171.1  47117.13  11892.35  25.24
1175.0  47022.16  11804.25  25.10
1179.0  46962.63  11741.24  25.00
1182.9  47045.30  11698.36  24.87
1186.8  47019.62  11624.80  24.72
1190.7  46784.64  11509.35  24.60
1194.7  46508.35  11404.56  24.52
1198.6  46264.68  11342.10  24.52
1202.5  46100.54  11301.49  24.51
1206.4  45962.62  11277.79  24.54
1210.3  45829.98  11286.90  24.63
1214.2  45707.13  11303.01  24.73
1218.2  45554.16  11306.90  24.82
1222.1  45384.95  11341.33  24.99
1226.0  45257.55  11397.46  25.18
1229.9  45156.00  11439.52  25.33
1233.8  45033.17  11477.21  25.49
1237.7  44950.68  11524.15  25.64
1241.6  44841.64  11561.81  25.78
1245.5  44683.61  11572.44  25.90
1249.4  44538.65  11564.69  25.97
1253.3  44401.40  11568.21  26.05
1257.2  44324.52  11586.59  26.14
1261.1  44209.48  11584.30  26.20
1265.0  44086.55  11557.10  26.21
1268.9  43910.05  11494.17  26.18
1272.8  43969.80  11490.25  26.13
1276.7  44155.69  11504.48  26.05
1280.6  44249.88  11465.27  25.91
1284.5  44188.89  11360.56  25.71
1288.4  44167.03  11263.39  25.50
1292.3  44060.50  11124.67  25.25
1296.2  43934.23  10960.94  24.95
1300.1  43787.98  10770.03  24.60
1303.9  43564.57  10546.45  24.21
1307.8  43339.22  10306.54  23.78
1311.7  43109.06  10040.99  23.29
1315.6  42877.90  9760.97  22.76
1319.5  42633.84  9447.89  22.16
1323.3  42417.44  9135.57  21.54
1327.2  42218.70  8822.10  20.90
1331.1  42002.86  8495.16  20.23
1335.0  41739.72  8165.38  19.56
1338.8  41543.11  7875.38  18.96
1342.7  41389.31  7624.60  18.42
1346.5  41042.00  7352.18  17.91
1350.4  40741.74  7116.07  17.47
1354.3  40332.24  6872.16  17.04
1358.1  39895.31  6611.56  16.57
1362.0  39644.33  6366.60  16.06
1365.8  39567.12  6135.15  15.51
1369.7  39683.68  5923.18  14.93
1373.5  39615.26  5657.40  14.28
1377.4  39354.79  5307.48  13.49
1381.2  39167.92  4882.21  12.46
1385.1  39160.09  4430.72  11.31
1389.0  39060.88  3977.29  10.18
1392.8  38834.72  3542.29  9.12
1396.6  38680.88  3150.88  8.15
1400.5  38476.57  2802.48  7.28
1404.3  38299.58  2528.44  6.60
1408.2  38263.03  2318.68  6.06
1412.0  38218.70  2150.24  5.63
1415.8  38249.29  2032.13  5.31
1419.6  38208.11  1933.84  5.06
1423.5  38172.20  1858.10  4.87
1427.3  38125.77  1805.72  4.74
1431.1  38099.78  1766.23  4.64
1434.9  38010.73  1733.84  4.56
1438.8  37949.80  1707.70  4.50
1442.6  37913.52  1692.53  4.46
1446.4  37795.09  1676.51  4.44
1450.2  37700.99  1669.11  4.43
1454.0  37583.52  1668.20  4.44
1457.8  37547.69  1669.90  4.45
1461.6  37527.24  1682.70  4.48
1465.4  37404.28  1691.81  4.52
1469.2  37216.73  1701.70  4.57
1473.0  37080.95  1729.00  4.66
1476.8  37019.78  1770.76  4.78
1480.7  36949.43  1820.92  4.93
1484.4  36826.56  1872.64  5.09
1488.2  36723.96  1934.20  5.27
1492.0  36584.11  2005.67  5.48
1495.8  36452.33  2073.29  5.69
1499.6  36350.05  2128.58  5.86
1503.4  36216.75  2156.82  5.96
1507.2  36087.28  2171.80  6.02
1510.9  35929.91  2195.39  6.11
