/*** Spectra Vista SIG Data ***/
name= AD.sig
comm= Averaged Ref/Tar of files: AD1,AD2,AD3
data=
346.4  503.23  71.13  14.14
347.9  541.74  74.05  13.67
349.5  598.00  67.39  11.27
351.1  640.64  70.72  11.04
352.6  695.75  69.79  10.03
354.2  739.59  76.58  10.35
355.7  803.71  79.25  9.86
357.3  855.32  81.83  9.57
358.8  874.92  80.62  9.21
360.4  948.55  81.84  8.63
361.9  994.84  81.26  8.17
363.5  1036.45  83.56  8.06
365.1  1085.33  79.75  7.35
366.6  1139.33  84.93  7.45
368.2  1200.86  84.39  7.03
369.7  1279.88  81.41  6.36
371.3  1357.61  80.78  5.95
372.8  1433.13  82.56  5.76
374.4  1499.65  83.44  5.56
375.9  1555.70  85.84  5.52
377.4  1607.82  91.29  5.68
379.0  1658.08  84.23  5.08
380.5  1711.09  88.84  5.19
382.1  1775.96  83.73  4.71
383.6  1836.14  83.35  4.54
385.2  1919.50  85.80  4.47
386.7  2004.45  84.83  4.23
388.3  2101.54  88.05  4.19
389.8  2181.36  92.05  4.22
391.3  2283.70  93.95  4.11
392.9  2358.51  94.08  3.99
394.4  2429.40  97.14  4.00
395.9  2510.95  109.27  4.35
397.5  2635.68  112.62  4.27
399.0  2750.10  110.62  4.02
400.6  2823.40  110.75  3.92
402.1  2876.70  108.19  3.76
403.6  2930.55  100.85  3.44
405.1  3003.26  99.63  3.32
406.7  3103.89  102.59  3.31
408.2  3207.60  106.77  3.33
409.7  3306.24  109.01  3.30
411.3  3413.43  113.37  3.32
412.8  3508.39  120.55  3.44
414.3  3617.41  124.50  3.44
415.8  3729.17  125.50  3.37
417.4  3854.03  129.20  3.35
418.9  3941.74  135.78  3.44
420.4  4022.06  135.26  3.36
421.9  4097.06  136.00  3.32
423.5  4176.54  133.72  3.20
425.0  4248.53  138.75  3.27
426.5  4344.43  138.17  3.18
428.0  4465.56  140.39  3.14
429.5  4591.88  139.44  3.04
431.1  4739.46  144.87  3.06
432.6  4905.58  146.62  2.99
434.1  5057.62  152.85  3.02
435.6  5195.48  156.61  3.01
437.1  5332.60  161.33  3.03
438.6  5461.39  164.93  3.02
440.1  5593.29  167.98  3.00
441.6  5729.82  168.21  2.94
443.1  5867.78  172.53  2.94
444.7  5999.92  176.87  2.95
446.2  6121.34  182.99  2.99
447.7  6235.89  184.97  2.97
449.2  6350.40  189.79  2.99
450.7  6451.47  185.81  2.88
452.2  6574.89  189.95  2.89
453.7  6713.07  189.61  2.82
455.2  6875.45  192.06  2.79
456.7  7065.81  193.60  2.74
458.2  7271.35  199.33  2.74
459.7  7478.92  206.62  2.76
461.2  7685.99  212.03  2.76
462.7  7865.86  218.74  2.78
464.2  8053.22  227.29  2.82
465.7  8245.98  232.31  2.82
467.2  8409.05  233.82  2.78
468.7  8596.67  242.40  2.82
470.2  8741.30  250.12  2.86
471.7  8901.50  254.76  2.86
473.2  9143.97  260.93  2.85
474.6  9356.73  262.21  2.80
476.1  9459.44  259.91  2.75
477.6  9522.58  261.65  2.75
479.1  9608.91  256.35  2.67
480.6  9702.20  256.78  2.65
482.1  9839.45  257.91  2.62
483.6  10004.44  260.83  2.61
485.1  10190.26  264.71  2.60
486.6  10412.75  270.85  2.60
488.0  10631.83  280.04  2.63
489.5  10866.26  290.05  2.67
491.0  11094.00  298.10  2.69
492.5  11334.06  310.82  2.74
494.0  11581.25  321.66  2.78
495.4  11791.45  333.74  2.83
496.9  12011.75  345.36  2.88
498.4  12222.11  359.60  2.94
499.9  12438.14  375.11  3.02
501.4  12640.20  389.37  3.08
502.8  12832.31  400.82  3.12
504.3  13016.40  414.84  3.19
505.8  13200.03  430.92  3.26
507.2  13332.80  441.55  3.31
508.7  13437.95  451.95  3.36
510.2  13545.84  468.12  3.46
511.6  13613.47  476.28  3.50
513.1  13737.64  485.45  3.53
514.6  13891.56  493.61  3.55
516.0  14022.93  505.99  3.61
517.5  14198.69  517.61  3.65
519.0  14415.66  533.69  3.70
520.5  14621.69  547.21  3.74
521.9  14866.71  565.88  3.81
523.4  15134.43  581.11  3.84
524.8  15392.46  599.55  3.90
526.3  15682.38  618.81  3.95
527.8  15975.00  636.34  3.98
529.2  16243.79  655.54  4.04
530.7  16532.75  675.42  4.09
532.1  16791.25  693.27  4.13
533.6  17098.03  713.37  4.17
535.0  17411.05  732.73  4.21
536.5  17707.45  750.34  4.24
538.0  18029.55  771.20  4.28
539.4  18312.76  793.46  4.33
540.9  18669.97  818.31  4.38
542.3  18955.35  842.49  4.44
543.8  19172.30  861.47  4.49
545.2  19252.81  870.35  4.52
546.6  19283.99  874.06  4.53
548.1  19338.06  883.73  4.57
549.5  19379.75  889.07  4.59
551.0  19422.16  897.64  4.62
552.4  19507.43  908.09  4.66
553.9  19558.73  915.41  4.68
555.3  19640.79  927.81  4.72
556.8  19772.58  943.24  4.77
558.2  19911.38  957.04  4.81
559.6  20066.31  974.42  4.86
561.1  20280.00  996.67  4.91
562.5  20498.11  1020.90  4.98
564.0  20783.05  1047.90  5.04
565.4  21038.48  1079.68  5.13
566.8  21356.19  1113.34  5.21
568.3  21649.13  1148.45  5.30
569.7  21968.79  1182.34  5.38
571.1  22273.95  1222.51  5.49
572.6  22573.62  1262.20  5.59
574.0  22877.25  1301.19  5.69
575.4  23160.38  1342.58  5.80
576.9  23434.95  1383.34  5.90
578.3  23676.04  1427.02  6.03
579.7  23920.23  1469.04  6.14
581.1  24111.16  1513.15  6.28
582.6  24317.19  1557.06  6.40
584.0  24495.89  1603.28  6.55
585.4  24745.82  1658.39  6.70
586.8  25064.96  1721.60  6.87
588.3  25432.68  1786.82  7.03
589.7  25756.38  1856.56  7.21
591.1  25970.91  1909.84  7.35
592.5  26105.48  1961.74  7.51
594.0  26201.92  2008.06  7.66
595.4  26250.11  2053.56  7.82
596.8  26292.70  2098.81  7.98
598.2  26339.13  2148.54  8.16
599.6  26361.45  2207.59  8.37
601.0  26452.12  2269.18  8.58
602.4  26526.23  2334.71  8.80
603.9  26659.64  2406.59  9.03
605.3  26784.53  2485.21  9.28
606.7  26908.80  2561.16  9.52
608.1  27108.84  2650.13  9.78
609.5  27330.93  2746.74  10.05
610.9  27585.15  2853.63  10.34
612.3  27809.43  2964.21  10.66
613.7  28120.53  3085.61  10.97
615.1  28333.26  3200.90  11.30
616.5  28534.23  3317.53  11.63
617.9  28863.17  3464.60  12.00
619.3  29168.74  3617.03  12.40
620.7  29546.43  3795.79  12.85
622.1  29953.26  3904.88  13.04
623.5  30408.95  3979.29  13.09
624.9  30932.48  4061.12  13.13
626.3  31282.04  4144.77  13.25
627.7  30988.05  4183.75  13.50
629.1  30715.02  4254.14  13.85
630.5  30610.13  4375.97  14.30
631.9  30619.81  4533.66  14.81
633.3  30639.54  4698.88  15.34
634.7  30762.02  4886.61  15.89
636.1  30844.92  5031.18  16.31
637.5  30948.89  5184.28  16.75
638.9  31100.51  5361.59  17.24
640.2  31225.86  5540.00  17.74
641.6  31301.40  5706.17  18.23
643.0  31321.24  5864.61  18.72
644.4  31380.89  6033.48  19.23
645.8  31343.92  6178.34  19.71
647.2  31504.03  6367.83  20.21
648.5  31634.89  6563.66  20.75
649.9  31541.32  6725.35  21.32
651.3  31483.15  6907.95  21.94
652.7  31376.05  7048.71  22.47
654.1  31228.88  6941.14  22.23
655.5  31071.03  6766.58  21.78
656.8  30908.06  6617.09  21.41
658.2  31094.63  6574.04  21.14
659.6  31429.56  6588.18  20.96
660.9  31712.85  6604.42  20.83
662.3  32020.74  6620.50  20.68
663.7  32338.60  6615.00  20.46
665.0  32574.47  6605.27  20.28
666.4  32817.67  6607.86  20.14
667.8  33117.70  6632.03  20.03
669.1  33348.50  6639.03  19.91
670.5  33608.66  6665.90  19.83
671.9  33795.32  6681.41  19.77
673.2  34038.34  6738.14  19.80
674.6  34256.17  6807.26  19.87
676.0  34531.31  6907.09  20.00
677.3  34810.52  7041.02  20.23
678.7  35100.75  7198.65  20.51
680.0  35463.42  7426.24  20.94
681.4  35828.89  7712.61  21.53
682.8  36200.56  8062.60  22.27
684.1  36557.82  8477.51  23.19
685.5  36854.35  8939.54  24.26
686.8  37181.26  9429.18  25.36
688.2  37458.26  9919.91  26.48
689.5  37549.38  10378.09  27.64
690.9  37627.30  10815.97  28.74
692.2  37700.05  11230.20  29.79
693.6  37750.41  11642.93  30.84
694.9  37732.84  11971.05  31.73
696.2  37769.74  12278.90  32.51
697.6  37806.36  12547.66  33.19
698.9  37834.72  12813.15  33.87
700.3  37885.52  13070.18  34.50
701.6  37955.71  13312.52  35.07
703.0  38031.85  13524.96  35.56
704.3  38049.75  13672.72  35.93
705.6  38053.74  13832.63  36.35
707.0  38086.97  13971.80  36.68
708.3  38006.36  14054.30  36.98
709.6  37911.22  14123.01  37.25
711.0  37815.65  14156.76  37.44
712.3  37716.87  14183.49  37.61
713.6  37698.64  14233.32  37.76
714.9  37633.63  14272.73  37.93
716.3  37652.46  14319.69  38.03
717.6  37689.21  14389.80  38.18
718.9  37640.30  14397.90  38.25
720.2  37470.49  14333.62  38.25
721.6  37371.01  14310.74  38.29
722.9  37219.21  14293.73  38.40
724.2  37029.25  14241.72  38.46
725.5  36910.67  14237.45  38.57
726.8  36772.46  14178.36  38.56
728.1  36740.50  14144.35  38.50
729.5  36694.32  14117.72  38.47
730.8  36677.94  14101.78  38.45
732.1  36603.07  14081.70  38.47
733.4  36584.90  14072.64  38.47
734.7  36564.25  14042.39  38.40
736.0  36601.11  14054.32  38.40
737.3  36571.21  14050.01  38.42
738.6  36680.96  14110.09  38.47
739.9  36863.92  14228.07  38.60
741.2  37009.70  14285.36  38.60
742.5  37231.48  14428.10  38.75
743.8  37632.79  14643.09  38.91
745.1  38236.22  14938.93  39.07
746.4  38913.27  15235.98  39.15
747.7  39596.38  15516.26  39.19
749.0  40261.18  15795.92  39.23
750.3  40678.42  15919.28  39.13
751.6  40639.89  15889.48  39.10
752.9  40259.64  15795.37  39.23
754.2  39877.01  15684.76  39.33
755.4  39469.65  15554.73  39.41
756.7  39315.06  15553.28  39.56
758.0  39334.08  15622.50  39.72
759.3  39575.49  15781.72  39.88
760.6  39897.29  16007.78  40.12
761.9  40192.89  16210.79  40.33
763.1  40351.80  16311.64  40.42
764.4  40554.33  16449.75  40.56
765.7  40694.33  16557.88  40.69
767.0  40803.49  16630.73  40.76
768.2  40893.44  16714.43  40.87
769.5  40951.90  16789.50  41.00
770.8  41120.20  16890.82  41.08
772.0  41150.36  16934.94  41.15
773.3  41212.08  17013.45  41.28
774.6  41302.16  17096.22  41.39
775.8  41395.31  17148.90  41.43
777.1  41433.31  17185.52  41.48
778.4  41404.17  17182.78  41.50
779.6  41364.56  17220.21  41.63
780.9  41306.67  17242.40  41.74
782.1  41182.48  17227.49  41.83
783.4  41165.97  17249.58  41.90
784.6  41206.41  17290.35  41.96
785.9  41475.03  17473.98  42.13
787.1  41961.09  17757.32  42.32
788.4  42332.15  17879.60  42.24
789.6  42321.72  17733.90  41.90
790.9  41986.06  17498.44  41.68
792.1  41600.37  17351.65  41.71
793.4  41185.15  17199.01  41.76
794.6  40931.47  17091.34  41.76
795.8  40723.11  17015.70  41.78
797.1  40484.18  16940.92  41.85
798.3  40309.64  16901.89  41.93
799.5  40189.95  16863.50  41.96
800.8  40097.33  16817.15  41.94
802.0  39958.31  16782.76  42.00
803.2  39836.27  16712.25  41.95
804.5  39751.27  16681.69  41.97
805.7  39635.19  16636.47  41.97
806.9  39545.48  16598.91  41.97
808.1  39439.69  16580.40  42.04
809.4  39406.68  16594.55  42.11
810.6  39321.10  16575.65  42.15
811.8  39309.79  16592.08  42.21
813.0  39338.84  16616.49  42.24
814.2  39359.58  16648.14  42.30
815.4  39438.88  16668.87  42.27
816.6  39455.48  16675.37  42.26
817.9  39497.38  16675.51  42.22
819.1  39453.27  16624.64  42.14
820.3  39334.71  16550.19  42.08
821.5  39257.80  16505.52  42.04
822.7  39192.68  16471.53  42.03
823.9  39198.66  16467.71  42.01
825.1  39198.81  16445.07  41.95
826.3  39235.09  16428.71  41.87
827.5  39260.08  16424.66  41.84
828.7  39325.44  16407.18  41.72
829.9  39367.70  16407.35  41.68
831.0  39435.83  16439.69  41.69
832.2  39528.54  16470.89  41.67
833.4  39583.47  16494.04  41.67
834.6  39645.32  16542.50  41.73
835.8  39721.50  16573.10  41.72
837.0  39784.79  16650.65  41.85
838.1  39917.81  16744.02  41.95
839.3  39992.44  16779.75  41.96
840.5  40072.68  16834.64  42.01
841.7  40179.78  16947.37  42.18
842.9  40306.09  17071.33  42.35
844.0  40382.56  17135.22  42.43
845.2  40498.52  17212.00  42.50
846.4  40610.73  17258.98  42.50
847.5  40798.55  17372.99  42.58
848.7  40940.34  17441.22  42.60
849.9  41100.54  17479.18  42.53
851.0  41161.19  17461.68  42.42
852.2  41237.85  17472.10  42.37
853.3  41217.18  17447.18  42.33
854.5  41211.96  17434.81  42.31
855.6  41202.99  17450.02  42.35
856.8  41229.76  17478.08  42.39
857.9  41232.89  17486.21  42.41
859.1  41356.07  17549.31  42.43
860.2  41357.99  17561.39  42.46
861.4  41401.48  17587.46  42.48
862.5  41437.78  17607.45  42.49
863.7  41523.74  17629.45  42.46
864.8  41509.30  17654.42  42.53
865.9  41458.89  17638.86  42.55
867.1  41518.68  17624.55  42.45
868.2  41508.74  17638.96  42.49
869.3  41546.90  17649.73  42.48
870.5  41501.19  17616.13  42.45
871.6  41512.90  17631.37  42.47
872.7  41589.54  17683.96  42.52
873.9  41609.80  17685.29  42.50
875.0  41599.73  17662.69  42.46
876.1  41632.01  17644.89  42.38
877.2  41661.07  17638.27  42.34
878.3  41651.64  17608.49  42.28
879.4  41702.31  17612.81  42.23
880.5  41747.76  17608.25  42.18
881.7  41734.55  17552.34  42.06
882.8  41814.34  17536.12  41.94
883.9  41840.41  17485.81  41.79
885.0  41801.31  17407.84  41.64
886.1  41787.81  17365.90  41.56
887.2  41697.13  17238.01  41.34
888.3  41596.31  17163.68  41.26
889.4  41559.46  17080.86  41.10
890.5  41483.03  17049.47  41.10
891.6  41449.37  16993.58  41.00
892.7  41437.55  16948.98  40.90
893.8  41494.23  16986.53  40.94
894.9  41508.02  16987.28  40.93
896.0  41522.07  16930.65  40.78
897.0  41497.01  16907.79  40.74
898.1  41499.65  16890.87  40.70
899.2  41538.09  16864.31  40.60
900.3  41485.02  16818.12  40.54
901.4  41433.86  16770.89  40.48
902.4  41440.72  16746.12  40.41
903.5  41389.32  16694.53  40.34
904.6  41397.96  16672.48  40.27
905.7  41440.81  16628.78  40.13
906.7  41382.33  16633.22  40.19
907.8  41497.00  16615.59  40.04
908.9  41419.22  16555.38  39.97
909.9  41399.51  16490.82  39.83
911.0  41354.96  16458.29  39.80
912.1  41270.94  16351.02  39.62
913.1  41222.65  16296.73  39.53
914.2  41139.56  16200.36  39.38
915.2  41148.81  16184.47  39.33
916.3  41094.45  16116.18  39.22
917.3  41093.60  16060.28  39.08
918.4  41008.64  15974.75  38.95
919.4  41020.74  15875.43  38.70
920.5  41030.76  15821.43  38.56
921.5  41028.14  15748.61  38.38
922.6  40960.89  15648.49  38.20
923.6  41026.84  15582.75  37.98
924.7  41050.67  15512.97  37.79
925.7  41058.04  15427.72  37.58
926.7  41060.71  15332.40  37.34
927.8  41082.83  15220.71  37.05
928.8  41231.42  15181.10  36.82
929.9  41395.15  15100.47  36.48
930.9  41544.48  15074.91  36.29
931.9  41716.90  15058.37  36.10
932.9  42008.84  15091.23  35.92
934.0  42069.73  15006.21  35.67
935.0  42106.73  14905.65  35.40
936.0  42101.08  14808.62  35.17
937.0  42064.69  14710.94  34.97
938.1  42022.51  14595.99  34.73
939.1  41957.10  14513.14  34.59
940.1  42085.33  14415.84  34.25
941.1  42250.89  14392.29  34.06
942.1  42470.67  14340.47  33.77
943.1  42663.93  14278.81  33.47
944.1  42849.77  14269.25  33.30
945.2  42900.90  14134.51  32.95
946.2  43020.74  14014.83  32.58
947.2  43085.33  13916.24  32.30
948.2  43244.59  13825.03  31.97
949.2  43348.23  13720.42  31.65
950.2  43428.55  13598.53  31.31
951.2  43449.28  13481.27  31.03
952.2  43601.87  13332.37  30.58
953.2  43736.50  13262.42  30.32
954.2  43863.23  13201.68  30.10
955.2  43921.39  13079.64  29.78
956.2  43896.62  12973.82  29.56
957.2  44036.80  12912.49  29.32
958.2  44057.43  12834.00  29.13
959.2  44189.10  12798.30  28.96
960.1  44229.31  12789.96  28.92
961.1  44319.50  12767.82  28.81
962.1  44365.00  12700.31  28.63
963.1  44359.68  12705.29  28.64
964.1  44489.81  12711.91  28.57
965.1  44624.89  12729.51  28.53
966.1  44663.13  12728.11  28.50
967.0  44755.50  12732.76  28.45
968.0  44817.85  12717.80  28.38
969.0  44882.93  12698.76  28.29
970.0  44880.75  12725.53  28.35
971.0  45007.97  12730.74  28.29
971.9  45054.32  12718.81  28.23
972.9  45159.04  12700.26  28.12
973.9  45282.15  12630.39  27.89
974.9  45345.35  12570.29  27.72
975.8  45430.93  12545.07  27.61
976.8  45566.20  12476.96  27.38
977.8  45588.08  12469.03  27.35
978.8  45638.35  12394.20  27.16
979.7  45849.72  12448.24  27.15
980.7  46021.36  12491.51  27.14
981.7  46129.63  12460.65  27.01
982.6  46377.66  12578.62  27.12
983.6  46862.08  12531.10  26.74
984.6  47215.20  12550.47  26.58
985.5  47742.36  12853.54  26.92
986.5  48507.28  12942.30  26.68
987.5  49279.84  13051.67  26.48
988.4  50149.00  13351.73  26.62
989.4  51058.54  13465.81  26.37
990.4  52354.57  13682.26  26.13
991.3  53569.47  13781.50  25.73
992.3  54516.26  14124.67  25.91
993.2  55874.36  14555.75  26.05
994.2  57855.52  14691.59  25.39
995.2  59218.52  14361.66  24.25
996.1  59496.46  14955.62  25.14
997.1  60148.71  14982.89  24.91
998.0  59041.40  14092.28  23.87
999.0  59619.86  14332.86  24.04
1000.0  59377.38  14300.57  24.08
1000.9  60466.30  14375.50  23.77
1001.9  60409.82  13973.99  23.13
1002.8  59236.86  13993.84  23.62
1003.8  61097.75  13354.22  21.86
1004.8  59478.92  14268.86  23.99
961.5  52207.74  13503.12  25.86
965.5  51149.17  13476.77  26.35
969.5  49257.47  13275.67  26.95
973.4  47271.79  12907.33  27.30
977.4  45598.95  12453.08  27.31
981.4  44957.85  12224.71  27.19
985.3  44934.82  12150.45  27.04
989.3  45243.02  12209.48  26.99
993.3  45617.56  12323.41  27.01
997.2  45796.67  12422.99  27.13
1001.2  45804.72  12551.28  27.40
1005.2  45725.78  12712.98  27.80
1009.1  45763.02  12929.60  28.25
1013.1  45908.76  13197.77  28.75
1017.1  46047.59  13460.10  29.23
1021.0  46083.93  13671.73  29.67
1025.0  46109.12  13875.81  30.09
1029.0  45984.18  14041.10  30.53
1032.9  45861.10  14204.45  30.97
1036.9  45872.56  14406.72  31.41
1040.9  45985.37  14668.57  31.90
1044.8  46166.20  14952.04  32.39
1048.8  46311.97  15204.28  32.83
1052.7  46416.55  15417.52  33.22
1056.7  46451.05  15577.47  33.54
1060.7  46461.15  15696.31  33.78
1064.6  46464.97  15788.75  33.98
1068.6  46377.73  15807.14  34.08
1072.5  46295.06  15792.42  34.11
1076.5  46249.62  15761.62  34.08
1080.4  46236.29  15701.94  33.96
1084.4  46318.92  15640.95  33.77
1088.3  46429.86  15557.48  33.51
1092.3  46428.61  15413.96  33.20
1096.2  46409.02  15257.00  32.88
1100.2  46430.93  15115.22  32.55
1104.1  46330.43  14921.27  32.21
1108.1  46279.55  14733.09  31.83
1112.0  46185.66  14506.11  31.41
1116.0  45991.36  14207.92  30.89
1119.9  45822.52  13881.67  30.29
1123.9  45894.02  13556.20  29.54
1127.8  45856.00  13086.72  28.54
1131.8  45824.14  12494.26  27.27
1135.7  45856.37  11807.40  25.75
1139.6  45847.09  11072.25  24.15
1143.6  45802.55  10390.89  22.69
1147.5  45764.61  9825.88  21.47
1151.4  45613.14  9382.65  20.57
1155.4  45599.94  9112.65  19.98
1159.3  45601.50  8965.16  19.66
1163.2  45441.79  8834.71  19.44
1167.2  45405.22  8754.42  19.28
1171.1  45408.55  8700.72  19.16
1175.0  45340.65  8637.20  19.05
1179.0  45301.18  8589.57  18.96
1182.9  45387.87  8558.75  18.86
1186.8  45373.54  8512.70  18.76
1190.7  45164.81  8429.82  18.66
1194.7  44915.88  8354.07  18.60
1198.6  44686.95  8316.00  18.61
1202.5  44527.82  8302.27  18.65
1206.4  44400.62  8294.75  18.68
1210.3  44292.31  8308.22  18.76
1214.2  44178.05  8335.80  18.87
1218.2  44025.39  8356.74  18.98
1222.1  43887.18  8384.00  19.10
1226.0  43786.50  8427.39  19.25
1229.9  43696.38  8470.46  19.38
1233.8  43595.00  8507.97  19.52
1237.7  43539.34  8548.22  19.63
1241.6  43460.44  8573.79  19.73
1245.5  43308.05  8584.68  19.82
1249.4  43172.93  8588.67  19.89
1253.3  43053.47  8602.18  19.98
1257.2  42973.68  8616.12  20.05
1261.1  42868.11  8617.75  20.10
1265.0  42746.20  8604.09  20.13
1268.9  42565.44  8562.05  20.12
1272.8  42612.25  8546.20  20.06
1276.7  42780.12  8540.84  19.96
1280.6  42854.69  8501.32  19.84
1284.5  42770.92  8406.78  19.66
1288.4  42730.59  8308.91  19.44
1292.3  42598.42  8177.58  19.20
1296.2  42446.96  8028.92  18.92
1300.1  42273.12  7859.93  18.59
1303.9  42036.91  7654.13  18.21
1307.8  41806.26  7429.63  17.77
1311.7  41567.42  7200.39  17.32
1315.6  41326.82  6962.70  16.85
1319.5  41080.54  6707.77  16.33
1323.3  40859.02  6455.36  15.80
1327.2  40659.95  6198.37  15.24
1331.1  40440.51  5939.10  14.69
1335.0  40153.14  5682.36  14.15
1338.8  39939.03  5455.01  13.66
1342.7  39763.90  5245.93  13.19
1346.5  39396.56  5022.92  12.75
1350.4  39076.67  4810.96  12.31
1354.3  38642.55  4594.51  11.89
1358.1  38173.86  4389.93  11.50
1362.0  37892.16  4219.49  11.14
1365.8  37807.23  4078.28  10.79
1369.7  37931.15  3940.67  10.39
1373.5  37895.89  3747.74  9.89
1377.4  37656.09  3475.82  9.23
1381.2  37442.01  3156.29  8.43
1385.1  37400.86  2852.74  7.63
1389.0  37313.96  2565.14  6.87
