/*** Spectra Vista SIG Data ***/
name= AOB.sig
comm= Averaged Ref/Tar of files: AOB1,AOB2,AOB3
data=
346.4  509.60  114.66  22.50
347.9  536.51  113.79  21.21
349.5  577.20  117.31  20.32
351.1  620.88  116.48  18.76
352.6  679.94  120.18  17.68
354.2  723.22  121.74  16.83
355.7  777.89  124.82  16.05
357.3  842.60  141.48  16.79
358.8  838.80  137.47  16.39
360.4  904.00  138.82  15.36
361.9  943.76  146.26  15.50
363.5  997.20  144.51  14.49
365.1  1040.25  148.87  14.31
366.6  1087.54  141.78  13.04
368.2  1161.70  145.49  12.52
369.7  1204.79  144.53  12.00
371.3  1287.37  149.70  11.63
372.8  1354.56  153.61  11.34
374.4  1435.13  157.53  10.98
375.9  1463.02  155.35  10.62
377.4  1512.41  155.69  10.29
379.0  1578.52  158.70  10.05
380.5  1618.77  155.11  9.58
382.1  1669.58  156.02  9.35
383.6  1726.52  156.87  9.09
385.2  1809.50  153.63  8.49
386.7  1900.67  159.56  8.40
388.3  1991.93  160.51  8.06
389.8  2077.97  168.73  8.12
391.3  2163.95  174.15  8.05
392.9  2236.17  183.22  8.19
394.4  2293.88  193.88  8.45
395.9  2364.42  201.38  8.52
397.5  2493.56  213.18  8.55
399.0  2617.23  215.48  8.23
400.6  2691.33  213.57  7.94
402.1  2739.96  206.06  7.52
403.6  2797.88  205.23  7.34
405.1  2865.39  210.22  7.34
406.7  2979.20  217.43  7.30
408.2  3089.54  222.15  7.19
409.7  3183.04  234.15  7.36
411.3  3295.62  245.41  7.45
412.8  3391.47  257.54  7.59
414.3  3507.27  267.59  7.63
415.8  3622.50  280.33  7.74
417.4  3739.34  290.44  7.77
418.9  3830.42  298.88  7.80
420.4  3913.23  304.42  7.78
421.9  3978.48  307.50  7.73
423.5  4044.22  312.58  7.73
425.0  4110.68  319.15  7.76
426.5  4198.95  322.79  7.69
428.0  4314.36  327.85  7.60
429.5  4445.73  334.70  7.53
431.1  4599.50  344.43  7.49
432.6  4769.72  356.82  7.48
434.1  4937.63  367.03  7.43
435.6  5085.18  379.78  7.47
437.1  5233.80  390.26  7.46
438.6  5364.45  407.15  7.59
440.1  5501.44  420.56  7.64
441.6  5653.06  429.34  7.59
443.1  5799.60  449.28  7.75
444.7  5941.01  466.35  7.85
446.2  6051.88  486.68  8.04
447.7  6161.82  507.73  8.24
449.2  6292.08  524.16  8.33
450.7  6396.00  535.81  8.38
452.2  6529.70  553.87  8.48
453.7  6647.26  570.17  8.58
455.2  6815.62  589.48  8.65
456.7  7013.60  607.55  8.66
458.2  7232.90  630.03  8.71
459.7  7456.75  652.40  8.75
461.2  7667.16  675.17  8.81
462.7  7858.10  690.94  8.79
464.2  8041.02  708.58  8.81
465.7  8240.35  727.22  8.83
467.2  8402.63  745.87  8.88
468.7  8584.00  769.07  8.96
470.2  8698.25  792.69  9.11
471.7  8877.75  815.42  9.18
473.2  9159.71  836.62  9.13
474.6  9386.40  850.48  9.06
476.1  9450.96  858.46  9.08
477.6  9499.75  864.43  9.10
479.1  9557.87  875.24  9.16
480.6  9632.82  882.55  9.16
482.1  9760.73  899.82  9.22
483.6  9935.74  918.98  9.25
485.1  10133.78  940.52  9.28
486.6  10366.07  971.81  9.37
488.0  10621.00  1004.90  9.46
489.5  10873.80  1045.44  9.61
491.0  11134.31  1078.66  9.69
492.5  11404.80  1129.89  9.91
494.0  11683.71  1181.78  10.11
495.4  11917.95  1231.56  10.33
496.9  12154.26  1292.36  10.63
498.4  12387.41  1355.80  10.95
499.9  12623.63  1423.47  11.28
501.4  12839.71  1496.74  11.66
502.8  13042.06  1576.10  12.08
504.3  13226.40  1661.28  12.56
505.8  13406.54  1753.43  13.08
507.2  13518.16  1846.02  13.66
508.7  13603.31  1941.09  14.27
510.2  13672.60  2037.12  14.90
511.6  13715.26  2136.58  15.58
513.1  13806.21  2249.24  16.29
514.6  13898.29  2364.46  17.01
516.0  13992.63  2484.57  17.76
517.5  14151.40  2619.22  18.51
519.0  14339.95  2762.66  19.27
520.5  14520.56  2909.14  20.03
521.9  14760.83  3066.98  20.78
523.4  15031.28  3229.34  21.48
524.8  15295.25  3390.42  22.17
526.3  15594.01  3556.42  22.81
527.8  15909.50  3722.60  23.40
529.2  16189.50  3870.43  23.91
530.7  16509.28  4025.63  24.38
532.1  16791.25  4162.24  24.79
533.6  17121.20  4309.14  25.17
535.0  17454.94  4449.99  25.49
536.5  17789.22  4589.98  25.80
538.0  18136.88  4727.33  26.06
539.4  18461.69  4856.39  26.31
540.9  18864.39  4999.61  26.50
542.3  19206.33  5123.86  26.68
543.8  19460.81  5220.75  26.83
545.2  19544.37  5280.65  27.02
546.6  19566.05  5330.18  27.24
548.1  19604.97  5375.24  27.42
549.5  19640.65  5419.26  27.59
551.0  19664.79  5453.33  27.73
552.4  19724.92  5492.29  27.84
553.9  19761.60  5517.26  27.92
555.3  19812.20  5537.14  27.95
556.8  19934.49  5567.81  27.93
558.2  20047.50  5591.70  27.89
559.6  20200.16  5615.86  27.80
561.1  20397.00  5649.80  27.70
562.5  20617.77  5677.55  27.54
564.0  20901.40  5723.33  27.38
565.4  21161.13  5752.41  27.18
566.8  21482.31  5792.46  26.96
568.3  21793.28  5820.14  26.71
569.7  22118.60  5844.28  26.42
571.1  22425.71  5855.59  26.11
572.6  22741.56  5864.40  25.79
574.0  23030.70  5872.68  25.50
575.4  23309.44  5870.93  25.19
576.9  23581.06  5875.49  24.92
578.3  23822.01  5867.77  24.63
579.7  24048.22  5865.51  24.39
581.1  24227.75  5854.18  24.16
582.6  24429.78  5848.80  23.94
584.0  24600.48  5840.74  23.74
585.4  24853.74  5847.40  23.53
586.8  25196.68  5879.76  23.34
588.3  25573.86  5922.38  23.16
589.7  25896.78  5949.22  22.97
591.1  26104.75  5969.97  22.87
592.5  26211.06  5969.38  22.77
594.0  26269.26  5961.74  22.69
595.4  26286.44  5947.91  22.63
596.8  26295.56  5939.36  22.59
598.2  26315.92  5926.00  22.52
599.6  26317.98  5909.43  22.45
601.0  26398.05  5903.00  22.36
602.4  26470.93  5894.45  22.27
603.9  26597.64  5890.05  22.15
605.3  26727.57  5881.59  22.01
606.7  26857.80  5867.04  21.84
608.1  27088.39  5860.83  21.64
609.5  27333.21  5855.61  21.42
610.9  27623.29  5855.77  21.20
612.3  27891.32  5846.52  20.96
613.7  28252.28  5855.24  20.72
615.1  28513.62  5833.73  20.46
616.5  28776.05  5817.59  20.22
617.9  29165.50  5834.17  20.00
619.3  29543.24  5850.97  19.80
620.7  29990.55  5892.81  19.65
622.1  30437.05  5938.68  19.51
623.5  30934.60  6007.67  19.42
624.9  31494.75  6086.54  19.33
626.3  31867.36  6138.19  19.26
627.7  31569.69  6054.30  19.18
629.1  31287.59  5964.25  19.06
630.5  31184.65  5897.78  18.91
631.9  31222.21  5897.78  18.89
633.3  31256.33  5903.81  18.89
634.7  31400.48  5910.44  18.82
636.1  31461.82  5852.89  18.60
637.5  31554.77  5758.54  18.25
638.9  31702.82  5750.66  18.14
640.2  31825.04  5728.14  18.00
641.6  31863.78  5651.88  17.74
643.0  31847.61  5543.11  17.41
644.4  31829.55  5439.20  17.09
645.8  31751.71  5308.18  16.72
647.2  31867.94  5204.78  16.33
648.5  31926.34  5099.37  15.97
649.9  31776.23  4953.73  15.59
651.3  31648.05  4815.42  15.22
652.7  31449.15  4670.92  14.85
654.1  31244.46  4560.84  14.60
655.5  31005.95  4451.87  14.36
656.8  30780.41  4332.91  14.08
658.2  30925.42  4259.93  13.77
659.6  31264.45  4198.43  13.43
660.9  31536.04  4113.18  13.04
662.3  31822.64  4034.17  12.68
663.7  32096.40  3949.96  12.31
665.0  32332.90  3868.17  11.96
666.4  32562.99  3782.80  11.62
667.8  32863.56  3723.94  11.33
669.1  33114.69  3676.37  11.10
670.5  33405.09  3645.46  10.91
671.9  33586.56  3617.87  10.77
673.2  33844.75  3614.74  10.68
674.6  34082.18  3630.78  10.65
676.0  34372.41  3663.08  10.66
677.3  34659.68  3710.10  10.70
678.7  34979.63  3794.97  10.85
680.0  35399.92  3920.38  11.07
681.4  35845.89  4085.52  11.40
682.8  36270.33  4300.36  11.86
684.1  36705.24  4579.53  12.48
685.5  37104.21  4918.08  13.25
686.8  37507.62  5340.17  14.24
688.2  37862.83  5824.15  15.38
689.5  38000.96  6354.13  16.72
690.9  38124.79  6931.20  18.18
692.2  38229.60  7557.52  19.77
693.6  38334.37  8223.22  21.45
694.9  38335.34  8880.81  23.17
696.2  38393.33  9562.02  24.91
697.6  38453.39  10238.91  26.63
698.9  38522.88  10918.34  28.34
700.3  38613.54  11573.56  29.97
701.6  38716.02  12218.18  31.56
703.0  38828.83  12842.02  33.07
704.3  38882.19  13439.75  34.57
705.6  38895.39  13984.60  35.95
707.0  38949.12  14515.01  37.27
708.3  38885.46  14977.98  38.52
709.6  38817.35  15416.83  39.72
711.0  38702.88  15819.48  40.87
712.3  38573.15  16185.35  41.96
713.6  38531.64  16569.45  43.00
714.9  38462.14  16902.84  43.95
716.3  38461.08  17266.95  44.89
717.6  38479.84  17628.56  45.81
718.9  38424.85  17930.39  46.66
720.2  38251.08  18158.73  47.47
721.6  38113.53  18394.88  48.26
722.9  37945.16  18587.74  48.99
724.2  37714.27  18730.62  49.66
725.5  37534.96  18880.37  50.30
726.8  37360.68  19029.49  50.93
728.1  37271.09  19202.04  51.52
729.5  37167.13  19348.73  52.06
730.8  37093.13  19482.61  52.52
732.1  36996.92  19589.33  52.95
733.4  36936.39  19716.62  53.38
734.7  36864.47  19833.87  53.80
736.0  36851.62  19946.28  54.13
737.3  36774.45  20017.39  54.43
738.6  36845.76  20160.98  54.72
739.9  37000.34  20344.17  54.98
741.2  37119.81  20508.85  55.25
742.5  37372.03  20732.27  55.48
743.8  37768.50  21032.17  55.69
745.1  38387.22  21454.89  55.89
746.4  39127.73  21923.84  56.03
747.7  39918.22  22397.38  56.11
749.0  40672.12  22887.92  56.27
750.3  41122.66  23186.30  56.38
751.6  41047.35  23181.82  56.48
752.9  40630.59  22960.86  56.51
754.2  40176.47  22765.47  56.66
755.4  39652.21  22523.93  56.80
756.7  39478.17  22457.95  56.89
758.0  39495.60  22493.40  56.95
759.3  39730.28  22671.77  57.06
760.6  40061.56  22893.02  57.14
761.9  40384.10  23094.03  57.19
763.1  40567.56  23226.57  57.25
764.4  40796.65  23381.24  57.31
765.7  40953.25  23479.73  57.33
767.0  41079.80  23576.77  57.39
768.2  41207.04  23657.09  57.41
769.5  41279.98  23715.17  57.45
770.8  41469.61  23847.70  57.51
772.0  41501.32  23873.45  57.52
773.3  41583.65  23915.32  57.51
774.6  41708.58  23993.18  57.53
775.8  41815.15  24082.96  57.59
777.1  41846.51  24106.33  57.61
778.4  41799.94  24090.40  57.63
779.6  41775.90  24104.53  57.70
780.9  41704.00  24068.27  57.71
782.1  41523.21  23966.93  57.72
783.4  41558.40  23987.12  57.72
784.6  41567.36  24014.22  57.77
785.9  41861.56  24188.66  57.78
787.1  42409.87  24525.45  57.83
788.4  42854.47  24786.64  57.84
789.6  42849.18  24783.12  57.84
790.9  42483.96  24582.91  57.86
792.1  42011.92  24319.32  57.89
793.4  41570.15  24075.60  57.92
794.6  41283.15  23915.50  57.93
795.8  41024.39  23791.76  57.99
797.1  40758.68  23632.62  57.98
798.3  40551.64  23533.90  58.03
799.5  40444.72  23481.42  58.06
800.8  40323.21  23428.96  58.10
802.0  40187.32  23349.11  58.10
803.2  40033.64  23279.81  58.15
804.5  39942.72  23229.97  58.16
805.7  39829.66  23178.71  58.19
806.9  39715.93  23107.67  58.18
808.1  39632.97  23048.04  58.15
809.4  39553.39  23037.80  58.24
810.6  39489.45  23015.11  58.28
811.8  39474.39  23007.60  58.28
813.0  39504.71  23022.75  58.28
814.2  39525.61  23054.66  58.33
815.4  39644.33  23134.80  58.36
816.6  39709.73  23168.91  58.35
817.9  39791.57  23215.07  58.34
819.1  39719.87  23195.56  58.40
820.3  39621.11  23122.56  58.36
821.5  39546.25  23077.02  58.35
822.7  39480.04  23065.37  58.42
823.9  39499.25  23067.55  58.40
825.1  39541.96  23085.95  58.38
826.3  39583.35  23124.96  58.42
827.5  39640.56  23165.57  58.44
828.7  39708.48  23198.24  58.42
829.9  39767.03  23233.79  58.42
831.0  39870.82  23293.59  58.42
832.2  39993.87  23364.58  58.42
833.4  40076.64  23420.69  58.44
834.6  40148.44  23471.88  58.46
835.8  40238.10  23525.46  58.47
837.0  40328.28  23583.23  58.48
838.1  40500.72  23677.05  58.46
839.3  40601.19  23748.07  58.49
840.5  40716.87  23810.58  58.48
841.7  40854.11  23890.09  58.48
842.9  40980.73  23965.20  58.48
844.0  41100.82  24029.17  58.46
845.2  41245.09  24127.02  58.50
846.4  41368.25  24199.17  58.50
847.5  41564.18  24328.93  58.53
848.7  41743.64  24421.15  58.50
849.9  41936.76  24553.41  58.55
851.0  42020.98  24601.23  58.55
852.2  42107.61  24645.33  58.53
853.3  42066.96  24617.01  58.52
854.5  42098.11  24626.19  58.50
855.6  42095.43  24631.34  58.51
856.8  42111.00  24668.17  58.58
857.9  42111.88  24655.92  58.55
859.1  42240.60  24728.08  58.54
860.2  42245.56  24726.45  58.53
861.4  42273.83  24750.90  58.55
862.5  42309.54  24776.14  58.56
863.7  42384.63  24842.57  58.61
864.8  42387.10  24842.63  58.61
865.9  42333.82  24798.41  58.58
867.1  42372.33  24821.73  58.58
868.2  42368.54  24831.55  58.61
869.3  42393.50  24831.72  58.57
870.5  42342.80  24786.75  58.54
871.6  42318.48  24778.07  58.55
872.7  42385.23  24817.67  58.55
873.9  42404.90  24859.20  58.62
875.0  42391.36  24818.21  58.55
876.1  42363.75  24806.16  58.56
877.2  42397.32  24839.47  58.59
878.3  42381.77  24828.50  58.58
879.4  42397.70  24823.31  58.55
880.5  42451.56  24867.60  58.58
881.7  42410.55  24829.48  58.55
882.8  42454.72  24853.70  58.54
883.9  42482.63  24867.80  58.54
885.0  42446.04  24841.82  58.53
886.1  42420.10  24825.14  58.52
887.2  42295.80  24770.43  58.56
888.3  42201.80  24717.38  58.57
889.4  42117.30  24635.15  58.49
890.5  42026.34  24599.26  58.53
891.6  41981.69  24586.91  58.57
892.7  41962.31  24552.50  58.51
893.8  41981.79  24558.57  58.50
894.9  41952.35  24551.18  58.52
896.0  41968.71  24529.62  58.45
897.0  41952.48  24551.07  58.52
898.1  41951.64  24571.01  58.57
899.2  41983.30  24545.52  58.46
900.3  41907.57  24487.87  58.43
901.4  41820.39  24444.88  58.45
902.4  41828.99  24462.90  58.48
903.5  41775.96  24408.92  58.43
904.6  41798.96  24416.14  58.41
905.7  41805.42  24418.64  58.41
906.7  41815.90  24411.24  58.38
907.8  41839.20  24429.45  58.39
908.9  41746.38  24385.74  58.41
909.9  41734.69  24373.71  58.40
911.0  41681.88  24331.75  58.37
912.1  41602.05  24293.76  58.40
913.1  41535.52  24261.33  58.41
914.2  41457.24  24171.48  58.30
915.2  41368.59  24162.48  58.41
916.3  41436.15  24168.24  58.33
917.3  41410.15  24144.98  58.31
918.4  41310.50  24097.11  58.33
919.4  41328.17  24088.45  58.29
920.5  41309.67  24073.03  58.27
921.5  41323.66  24073.83  58.26
922.6  41255.80  24037.97  58.27
923.6  41303.54  24052.05  58.23
924.7  41344.50  24041.30  58.15
925.7  41333.16  24039.70  58.16
926.7  41356.90  24060.87  58.18
927.8  41415.30  24094.83  58.18
928.8  41570.85  24149.51  58.09
929.9  41658.93  24188.18  58.06
930.9  41879.39  24316.23  58.06
931.9  42070.56  24393.54  57.98
932.9  42412.10  24600.41  58.00
934.0  42452.50  24570.82  57.88
935.0  42440.57  24601.86  57.97
936.0  42488.02  24564.95  57.82
937.0  42429.47  24535.42  57.83
938.1  42380.86  24484.06  57.77
939.1  42337.65  24448.40  57.75
940.1  42429.30  24482.33  57.70
941.1  42615.86  24600.08  57.73
942.1  42903.92  24703.39  57.58
943.1  43057.09  24778.23  57.55
944.1  43342.63  24895.55  57.44
945.2  43356.60  24915.07  57.47
946.2  43482.48  24926.79  57.33
947.2  43549.00  24952.40  57.30
948.2  43743.16  25037.53  57.24
949.2  43840.88  25022.73  57.08
950.2  43906.25  25018.37  56.98
951.2  44010.96  25045.22  56.91
952.2  44061.91  25093.84  56.95
953.2  44318.14  25140.72  56.73
954.2  44380.80  25167.21  56.71
955.2  44428.35  25151.49  56.61
956.2  44460.20  25129.41  56.52
957.2  44542.35  25122.52  56.40
958.2  44649.94  25180.96  56.40
959.2  44705.25  25219.20  56.41
960.1  44813.66  25196.41  56.22
961.1  44928.76  25238.56  56.17
962.1  44958.75  25208.25  56.07
963.1  44986.01  25259.78  56.15
964.1  45106.16  25309.26  56.11
965.1  45270.70  25346.48  55.99
966.1  45207.41  25361.79  56.10
967.0  45355.66  25398.09  56.00
968.0  45441.48  25355.21  55.80
969.0  45453.60  25417.49  55.92
970.0  45557.64  25442.24  55.85
971.0  45615.57  25485.78  55.87
971.9  45699.86  25522.64  55.85
972.9  45781.93  25538.22  55.78
973.9  45829.88  25541.49  55.73
974.9  45973.78  25621.79  55.73
975.8  45979.65  25646.43  55.78
976.8  46106.16  25653.86  55.64
977.8  46097.80  25677.14  55.70
978.8  46103.70  25741.80  55.83
979.7  46387.55  25781.46  55.58
980.7  46405.76  25804.84  55.61
981.7  46694.84  25889.40  55.44
982.6  46857.76  26002.22  55.49
983.6  47433.79  26241.34  55.32
984.6  47818.98  26453.40  55.32
985.5  48063.24  26807.23  55.77
986.5  48770.77  27138.78  55.65
987.5  50043.63  27520.94  54.99
988.4  50895.90  27998.08  55.01
989.4  52431.75  28596.11  54.54
990.4  53425.02  29466.48  55.15
991.3  55387.31  30085.25  54.32
992.3  55950.90  31014.27  55.43
993.2  58118.31  31744.41  54.62
994.2  59457.94  32655.48  54.92
995.2  60710.63  32789.34  54.01
996.1  61737.77  33375.07  54.06
997.1  61885.85  33396.65  53.96
998.0  61668.00  33209.36  53.85
999.0  61787.86  33628.01  54.42
1000.0  62252.49  33351.33  53.57
1000.9  62564.91  33420.42  53.42
1001.9  61626.12  33515.96  54.39
1002.8  61885.09  33730.16  54.50
1003.8  61970.58  32643.66  52.68
1004.8  62064.96  32979.62  53.14
961.5  55881.62  26909.55  48.15
965.5  54589.44  26555.49  48.65
969.5  52393.79  25799.48  49.24
973.4  50126.74  25063.37  50.00
977.4  48345.52  24473.01  50.62
981.4  47464.01  24334.63  51.27
985.3  47176.98  24519.44  51.97
989.3  47304.75  24875.29  52.59
993.3  47508.66  25237.27  53.12
997.2  47541.75  25470.80  53.58
1001.2  47520.33  25591.76  53.85
1005.2  47455.76  25637.25  54.02
1009.1  47529.68  25735.27  54.15
1013.1  47663.39  25894.78  54.33
1017.1  47785.75  26053.04  54.52
1021.0  47816.50  26156.65  54.70
1025.0  47819.30  26244.90  54.88
1029.0  47652.00  26223.04  55.03
1032.9  47495.63  26191.62  55.15
1036.9  47497.16  26237.82  55.24
1040.9  47608.97  26342.10  55.33
1044.8  47827.54  26503.16  55.41
1048.8  48004.98  26645.96  55.51
1052.7  48133.54  26766.04  55.61
1056.7  48188.20  26820.75  55.66
1060.7  48194.60  26851.30  55.71
1064.6  48198.22  26883.09  55.78
1068.6  48113.17  26843.31  55.79
1072.5  48026.55  26799.34  55.80
1076.5  47975.49  26782.58  55.83
1080.4  47966.69  26767.85  55.81
1084.4  48069.59  26812.85  55.78
1088.3  48170.15  26874.32  55.79
1092.3  48152.58  26840.63  55.74
1096.2  48142.77  26791.29  55.65
1100.2  48183.64  26782.94  55.59
1104.1  48079.94  26692.88  55.52
1108.1  48035.13  26605.79  55.39
1112.0  47943.86  26501.09  55.28
1116.0  47742.57  26332.89  55.16
1119.9  47581.47  26156.61  54.97
1123.9  47666.30  26084.58  54.72
1127.8  47639.04  25911.04  54.39
1131.8  47617.38  25694.64  53.96
1135.7  47659.94  25457.62  53.42
1139.6  47675.62  25148.23  52.75
1143.6  47638.82  24787.16  52.03
1147.5  47616.88  24437.93  51.32
1151.4  47500.80  24060.89  50.65
1155.4  47513.75  23829.69  50.15
1159.3  47522.52  23683.69  49.84
1163.2  47363.89  23487.10  49.59
1167.2  47347.50  23392.32  49.41
1171.1  47369.57  23339.44  49.27
1175.0  47314.40  23255.96  49.15
1179.0  47268.08  23188.60  49.06
1182.9  47358.68  23183.16  48.95
1186.8  47350.70  23139.24  48.87
1190.7  47139.70  22982.72  48.75
1194.7  46883.87  22820.71  48.67
1198.6  46652.76  22698.06  48.65
1202.5  46480.48  22613.34  48.65
1206.4  46340.80  22557.86  48.68
1210.3  46236.01  22533.99  48.74
1214.2  46114.66  22525.18  48.85
1218.2  45952.68  22504.20  48.97
1222.1  45800.88  22493.79  49.11
1226.0  45686.61  22504.58  49.26
1229.9  45598.02  22531.36  49.41
1233.8  45484.04  22536.94  49.55
1237.7  45416.66  22545.29  49.64
1241.6  45332.53  22552.44  49.75
1245.5  45166.97  22511.49  49.84
1249.4  45023.84  22467.49  49.90
1253.3  44894.25  22428.82  49.96
1257.2  44816.00  22400.16  49.98
1261.1  44716.86  22346.28  49.97
1265.0  44587.73  22270.20  49.95
1268.9  44400.64  22163.98  49.92
1272.8  44460.00  22179.65  49.89
1276.7  44653.74  22251.93  49.83
1280.6  44733.81  22252.29  49.74
1284.5  44649.07  22153.37  49.62
1288.4  44631.63  22077.95  49.47
1292.3  44511.50  21941.33  49.29
1296.2  44360.33  21782.56  49.10
1300.1  44197.71  21592.71  48.85
1303.9  43963.66  21354.56  48.57
1307.8  43715.49  21093.88  48.25
1311.7  43464.03  20804.87  47.87
1315.6  43214.30  20497.78  47.43
1319.5  42962.15  20154.71  46.91
1323.3  42734.84  19809.41  46.35
1327.2  42525.95  19461.09  45.76
1331.1  42285.13  19087.49  45.14
1335.0  41985.32  18681.97  44.50
1338.8  41775.29  18304.75  43.82
1342.7  41609.18  17960.94  43.17
1346.5  41242.98  17546.71  42.54
1350.4  40931.78  17164.94  41.94
1354.3  40517.39  16748.39  41.34
1358.1  40047.65  16313.08  40.73
1362.0  39764.09  15928.39  40.06
