/*** Spectra Vista SIG Data ***/
name= AOF.sig
comm= Averaged Ref/Tar of files: AOF1,AOF2,AOF3
data=
346.4  509.60  95.55  18.75
347.9  536.51  91.62  17.08
349.5  577.20  96.51  16.72
351.1  620.88  89.44  14.41
352.6  679.94  96.14  14.14
354.2  723.22  98.17  13.57
355.7  777.89  96.98  12.47
357.3  842.60  110.04  13.06
358.8  838.80  108.11  12.89
360.4  904.00  109.75  12.14
361.9  943.76  109.58  11.61
363.5  997.20  107.57  10.79
365.1  1040.25  110.96  10.67
366.6  1087.54  104.96  9.65
368.2  1161.70  104.75  9.02
369.7  1204.79  103.61  8.60
371.3  1287.37  110.63  8.59
372.8  1354.56  110.23  8.14
374.4  1435.13  114.37  7.97
375.9  1463.02  107.24  7.33
377.4  1512.41  110.58  7.31
379.0  1578.52  104.39  6.61
380.5  1618.77  103.81  6.41
382.1  1669.58  105.99  6.35
383.6  1726.52  100.93  5.85
385.2  1809.50  104.50  5.78
386.7  1900.67  105.41  5.55
388.3  1991.93  106.17  5.33
389.8  2077.97  109.43  5.27
391.3  2163.95  108.80  5.03
392.9  2236.17  112.66  5.04
394.4  2293.88  113.56  4.95
395.9  2364.42  124.34  5.26
397.5  2493.56  121.02  4.85
399.0  2617.23  128.54  4.91
400.6  2691.33  119.99  4.46
402.1  2739.96  113.17  4.13
403.6  2797.88  109.65  3.92
405.1  2865.39  109.38  3.82
406.7  2979.20  107.82  3.62
408.2  3089.54  108.70  3.52
409.7  3183.04  112.00  3.52
411.3  3295.62  115.67  3.51
412.8  3391.47  121.03  3.57
414.3  3507.27  124.66  3.55
415.8  3622.50  123.00  3.40
417.4  3739.34  138.98  3.72
418.9  3830.42  135.27  3.53
420.4  3913.23  134.26  3.43
421.9  3978.48  136.17  3.42
423.5  4044.22  137.30  3.39
425.0  4110.68  135.15  3.29
426.5  4198.95  137.03  3.26
428.0  4314.36  134.37  3.11
429.5  4445.73  136.93  3.08
431.1  4599.50  140.61  3.06
432.6  4769.72  141.24  2.96
434.1  4937.63  148.61  3.01
435.6  5085.18  156.09  3.07
437.1  5233.80  157.56  3.01
438.6  5364.45  160.87  3.00
440.1  5501.44  167.06  3.04
441.6  5653.06  168.74  2.98
443.1  5799.60  172.26  2.97
444.7  5941.01  177.28  2.98
446.2  6051.88  183.84  3.04
447.7  6161.82  186.98  3.03
449.2  6292.08  192.67  3.06
450.7  6396.00  190.81  2.98
452.2  6529.70  192.31  2.95
453.7  6647.26  195.19  2.94
455.2  6815.62  200.80  2.95
456.7  7013.60  206.27  2.94
458.2  7232.90  205.97  2.85
459.7  7456.75  214.20  2.87
461.2  7667.16  218.63  2.85
462.7  7858.10  226.73  2.89
464.2  8041.02  229.36  2.85
465.7  8240.35  238.32  2.89
467.2  8402.63  240.75  2.87
468.7  8584.00  250.67  2.92
470.2  8698.25  257.15  2.96
471.7  8877.75  262.20  2.95
473.2  9159.71  276.33  3.02
474.6  9386.40  276.42  2.94
476.1  9450.96  270.79  2.87
477.6  9499.75  269.09  2.83
479.1  9557.87  269.17  2.82
480.6  9632.82  272.22  2.83
482.1  9760.73  274.25  2.81
483.6  9935.74  279.15  2.81
485.1  10133.78  281.82  2.78
486.6  10366.07  287.10  2.77
488.0  10621.00  293.58  2.76
489.5  10873.80  300.39  2.76
491.0  11134.31  312.83  2.81
492.5  11404.80  322.70  2.83
494.0  11683.71  335.28  2.87
495.4  11917.95  347.38  2.91
496.9  12154.26  358.49  2.95
498.4  12387.41  375.06  3.03
499.9  12623.63  389.53  3.09
501.4  12839.71  409.26  3.19
502.8  13042.06  431.07  3.31
504.3  13226.40  449.76  3.40
505.8  13406.54  476.61  3.56
507.2  13518.16  506.46  3.75
508.7  13603.31  538.36  3.96
510.2  13672.60  572.78  4.19
511.6  13715.26  612.50  4.47
513.1  13806.21  657.24  4.76
514.6  13898.29  710.76  5.11
516.0  13992.63  771.47  5.51
517.5  14151.40  838.24  5.92
519.0  14339.95  909.45  6.34
520.5  14520.56  990.56  6.82
521.9  14760.83  1080.59  7.32
523.4  15031.28  1172.64  7.80
524.8  15295.25  1268.63  8.29
526.3  15594.01  1369.49  8.78
527.8  15909.50  1468.85  9.23
529.2  16189.50  1560.26  9.64
530.7  16509.28  1656.06  10.03
532.1  16791.25  1740.31  10.36
533.6  17121.20  1832.18  10.70
535.0  17454.94  1914.07  10.97
536.5  17789.22  1993.17  11.20
538.0  18136.88  2070.61  11.42
539.4  18461.69  2141.72  11.60
540.9  18864.39  2221.75  11.78
542.3  19206.33  2295.75  11.95
543.8  19460.81  2356.44  12.11
545.2  19544.37  2399.20  12.28
546.6  19566.05  2427.11  12.40
548.1  19604.97  2459.67  12.55
549.5  19640.65  2484.18  12.65
551.0  19664.79  2506.20  12.74
552.4  19724.92  2529.87  12.83
553.9  19761.60  2540.13  12.85
555.3  19812.20  2546.86  12.85
556.8  19934.49  2550.45  12.79
558.2  20047.50  2545.88  12.70
559.6  20200.16  2540.44  12.58
561.1  20397.00  2531.53  12.41
562.5  20617.77  2524.69  12.25
564.0  20901.40  2514.45  12.03
565.4  21161.13  2497.34  11.80
566.8  21482.31  2485.20  11.57
568.3  21793.28  2452.05  11.25
569.7  22118.60  2424.60  10.96
571.1  22425.71  2389.86  10.66
572.6  22741.56  2353.11  10.35
574.0  23030.70  2311.98  10.04
575.4  23309.44  2275.88  9.76
576.9  23581.06  2240.24  9.50
578.3  23822.01  2208.88  9.27
579.7  24048.22  2173.81  9.04
581.1  24227.75  2143.79  8.85
582.6  24429.78  2116.88  8.67
584.0  24600.48  2089.19  8.49
585.4  24853.74  2069.66  8.33
586.8  25196.68  2063.16  8.19
588.3  25573.86  2064.82  8.07
589.7  25896.78  2054.83  7.93
591.1  26104.75  2045.98  7.84
592.5  26211.06  2033.84  7.76
594.0  26269.26  2016.65  7.68
595.4  26286.44  1997.75  7.60
596.8  26295.56  1983.70  7.54
598.2  26315.92  1974.11  7.50
599.6  26317.98  1953.53  7.42
601.0  26398.05  1942.08  7.36
602.4  26470.93  1929.18  7.29
603.9  26597.64  1912.39  7.19
605.3  26727.57  1890.69  7.07
606.7  26857.80  1860.96  6.93
608.1  27088.39  1838.72  6.79
609.5  27333.21  1816.62  6.65
610.9  27623.29  1792.87  6.49
612.3  27891.32  1767.35  6.34
613.7  28252.28  1742.34  6.17
615.1  28513.62  1712.23  6.00
616.5  28776.05  1687.60  5.86
617.9  29165.50  1670.45  5.73
619.3  29543.24  1662.78  5.63
620.7  29990.55  1656.77  5.52
622.1  30437.05  1662.95  5.46
623.5  30934.60  1676.52  5.42
624.9  31494.75  1699.32  5.40
626.3  31867.36  1718.05  5.39
627.7  31569.69  1684.40  5.34
629.1  31287.59  1645.74  5.26
630.5  31184.65  1623.29  5.21
631.9  31222.21  1611.30  5.16
633.3  31256.33  1597.77  5.11
634.7  31400.48  1588.88  5.06
636.1  31461.82  1569.12  4.99
637.5  31554.77  1546.48  4.90
638.9  31702.82  1521.20  4.80
640.2  31825.04  1491.57  4.69
641.6  31863.78  1455.79  4.57
643.0  31847.61  1420.18  4.46
644.4  31829.55  1379.52  4.33
645.8  31751.71  1338.83  4.22
647.2  31867.94  1305.81  4.10
648.5  31926.34  1275.35  3.99
649.9  31776.23  1249.25  3.93
651.3  31648.05  1223.66  3.87
652.7  31449.15  1197.82  3.81
654.1  31244.46  1162.76  3.72
655.5  31005.95  1120.42  3.61
656.8  30780.41  1079.70  3.51
658.2  30925.42  1055.39  3.41
659.6  31264.45  1034.69  3.31
660.9  31536.04  1015.91  3.22
662.3  31822.64  996.44  3.13
663.7  32096.40  977.20  3.04
665.0  32332.90  967.39  2.99
666.4  32562.99  955.95  2.94
667.8  32863.56  953.52  2.90
669.1  33114.69  949.97  2.87
670.5  33405.09  958.61  2.87
671.9  33586.56  962.88  2.87
673.2  33844.75  978.33  2.89
674.6  34082.18  999.00  2.93
676.0  34372.41  1022.71  2.98
677.3  34659.68  1046.10  3.02
678.7  34979.63  1085.17  3.10
680.0  35399.92  1128.69  3.19
681.4  35845.89  1185.03  3.31
682.8  36270.33  1256.71  3.46
684.1  36705.24  1337.86  3.64
685.5  37104.21  1444.38  3.89
686.8  37507.62  1579.32  4.21
688.2  37862.83  1740.40  4.60
689.5  38000.96  1938.76  5.10
690.9  38124.79  2182.14  5.72
692.2  38229.60  2475.88  6.48
693.6  38334.37  2826.21  7.37
694.9  38335.34  3226.83  8.42
696.2  38393.33  3690.47  9.61
697.6  38453.39  4199.86  10.92
698.9  38522.88  4747.78  12.32
700.3  38613.54  5329.67  13.80
701.6  38716.02  5935.77  15.33
703.0  38828.83  6549.62  16.87
704.3  38882.19  7165.56  18.43
705.6  38895.39  7783.35  20.01
707.0  38949.12  8405.17  21.58
708.3  38885.46  8998.54  23.14
709.6  38817.35  9582.80  24.69
711.0  38702.88  10148.14  26.22
712.3  38573.15  10692.37  27.72
713.6  38531.64  11245.30  29.18
714.9  38462.14  11776.14  30.62
716.3  38461.08  12316.87  32.02
717.6  38479.84  12843.47  33.38
718.9  38424.85  13333.73  34.70
720.2  38251.08  13762.12  35.98
721.6  38113.53  14185.36  37.22
722.9  37945.16  14572.48  38.40
724.2  37714.27  14906.53  39.52
725.5  37534.96  15247.23  40.62
726.8  37360.68  15547.78  41.62
728.1  37271.09  15857.35  42.55
729.5  37167.13  16152.76  43.46
730.8  37093.13  16430.84  44.30
732.1  36996.92  16670.47  45.06
733.4  36936.39  16902.88  45.76
734.7  36864.47  17106.85  46.40
736.0  36851.62  17328.90  47.02
737.3  36774.45  17500.79  47.59
738.6  36845.76  17725.09  48.11
739.9  37000.34  17968.67  48.56
741.2  37119.81  18171.97  48.95
742.5  37372.03  18426.03  49.30
743.8  37768.50  18754.89  49.66
745.1  38387.22  19184.25  49.98
746.4  39127.73  19660.37  50.25
747.7  39918.22  20140.48  50.45
749.0  40672.12  20608.04  50.67
750.3  41122.66  20912.12  50.85
751.6  41047.35  20945.69  51.03
752.9  40630.59  20815.00  51.23
754.2  40176.47  20645.38  51.39
755.4  39652.21  20456.65  51.59
756.7  39478.17  20425.16  51.74
758.0  39495.60  20492.20  51.88
759.3  39730.28  20670.13  52.03
760.6  40061.56  20882.81  52.13
761.9  40384.10  21085.11  52.21
763.1  40567.56  21210.82  52.29
764.4  40796.65  21358.11  52.35
765.7  40953.25  21471.67  52.43
767.0  41079.80  21565.77  52.50
768.2  41207.04  21651.39  52.54
769.5  41279.98  21708.42  52.59
770.8  41469.61  21818.10  52.61
772.0  41501.32  21860.36  52.67
773.3  41583.65  21907.62  52.68
774.6  41708.58  21981.63  52.70
775.8  41815.15  22040.79  52.71
777.1  41846.51  22059.57  52.72
778.4  41799.94  22039.59  52.73
779.6  41775.90  22045.20  52.77
780.9  41704.00  22019.20  52.80
782.1  41523.21  21948.06  52.86
783.4  41558.40  21949.83  52.82
784.6  41567.36  21974.66  52.87
785.9  41861.56  22136.47  52.88
787.1  42409.87  22439.08  52.91
788.4  42854.47  22657.96  52.87
789.6  42849.18  22627.89  52.81
790.9  42483.96  22421.24  52.78
792.1  42011.92  22197.49  52.84
793.4  41570.15  21982.24  52.88
794.6  41283.15  21820.49  52.86
795.8  41024.39  21697.98  52.89
797.1  40758.68  21559.84  52.90
798.3  40551.64  21470.24  52.95
799.5  40444.72  21414.34  52.95
800.8  40323.21  21357.54  52.97
802.0  40187.32  21300.05  53.00
803.2  40033.64  21219.29  53.00
804.5  39942.72  21171.33  53.00
805.7  39829.66  21118.27  53.02
806.9  39715.93  21061.16  53.03
808.1  39632.97  21011.95  53.02
809.4  39553.39  20983.22  53.05
810.6  39489.45  20951.84  53.06
811.8  39474.39  20946.32  53.06
813.0  39504.71  20980.71  53.11
814.2  39525.61  21004.60  53.14
815.4  39644.33  21080.91  53.18
816.6  39709.73  21111.57  53.16
817.9  39791.57  21140.56  53.13
819.1  39719.87  21120.20  53.17
820.3  39621.11  21074.92  53.19
821.5  39546.25  21038.61  53.20
822.7  39480.04  21028.36  53.26
823.9  39499.25  21033.31  53.25
825.1  39541.96  21053.21  53.24
826.3  39583.35  21085.08  53.27
827.5  39640.56  21125.26  53.29
828.7  39708.48  21162.05  53.29
829.9  39767.03  21192.63  53.29
831.0  39870.82  21268.72  53.34
832.2  39993.87  21326.37  53.32
833.4  40076.64  21369.86  53.32
834.6  40148.44  21433.75  53.39
835.8  40238.10  21482.37  53.39
837.0  40328.28  21554.18  53.45
838.1  40500.72  21639.57  53.43
839.3  40601.19  21702.02  53.45
840.5  40716.87  21775.48  53.48
841.7  40854.11  21863.45  53.52
842.9  40980.73  21956.49  53.58
844.0  41100.82  22017.35  53.57
845.2  41245.09  22117.25  53.62
846.4  41368.25  22196.30  53.66
847.5  41564.18  22330.95  53.73
848.7  41743.64  22434.05  53.74
849.9  41936.76  22532.75  53.73
851.0  42020.98  22567.24  53.70
852.2  42107.61  22618.38  53.72
853.3  42066.96  22605.27  53.74
854.5  42098.11  22613.59  53.72
855.6  42095.43  22626.17  53.75
856.8  42111.00  22630.18  53.74
857.9  42111.88  22644.46  53.77
859.1  42240.60  22702.75  53.75
860.2  42245.56  22712.67  53.76
861.4  42273.83  22743.86  53.80
862.5  42309.54  22763.98  53.80
863.7  42384.63  22803.53  53.80
864.8  42387.10  22813.05  53.82
865.9  42333.82  22795.76  53.85
867.1  42372.33  22797.61  53.80
868.2  42368.54  22802.35  53.82
869.3  42393.50  22816.81  53.82
870.5  42342.80  22766.88  53.77
871.6  42318.48  22765.33  53.80
872.7  42385.23  22807.82  53.81
873.9  42404.90  22811.36  53.79
875.0  42391.36  22794.88  53.77
876.1  42363.75  22798.37  53.82
877.2  42397.32  22811.38  53.80
878.3  42381.77  22801.14  53.80
879.4  42397.70  22817.75  53.82
880.5  42451.56  22837.34  53.80
881.7  42410.55  22820.63  53.81
882.8  42454.72  22833.20  53.78
883.9  42482.63  22847.73  53.78
885.0  42446.04  22789.31  53.69
886.1  42420.10  22786.30  53.72
887.2  42295.80  22683.48  53.63
888.3  42201.80  22638.32  53.64
889.4  42117.30  22571.73  53.59
890.5  42026.34  22531.71  53.61
891.6  41981.69  22491.29  53.57
892.7  41962.31  22467.96  53.54
893.8  41981.79  22485.98  53.56
894.9  41952.35  22458.58  53.53
896.0  41968.71  22450.61  53.49
897.0  41952.48  22453.44  53.52
898.1  41951.64  22476.99  53.58
899.2  41983.30  22463.32  53.51
900.3  41907.57  22425.82  53.51
901.4  41820.39  22368.31  53.49
902.4  41828.99  22378.24  53.50
903.5  41775.96  22348.96  53.50
904.6  41798.96  22329.69  53.42
905.7  41805.42  22317.97  53.39
906.7  41815.90  22314.66  53.36
907.8  41839.20  22324.57  53.36
908.9  41746.38  22304.90  53.43
909.9  41734.69  22280.63  53.39
911.0  41681.88  22251.25  53.38
912.1  41602.05  22215.30  53.40
913.1  41535.52  22162.82  53.36
914.2  41457.24  22102.59  53.31
915.2  41368.59  22093.88  53.41
916.3  41436.15  22076.50  53.28
917.3  41410.15  22045.00  53.24
918.4  41310.50  22015.99  53.29
919.4  41328.17  22006.16  53.25
920.5  41309.67  22002.90  53.26
921.5  41323.66  21996.17  53.23
922.6  41255.80  21967.99  53.25
923.6  41303.54  21977.47  53.21
924.7  41344.50  21980.17  53.16
925.7  41333.16  21970.50  53.15
926.7  41356.90  21976.57  53.14
927.8  41415.30  22000.98  53.12
928.8  41570.85  22035.35  53.01
929.9  41658.93  22094.49  53.04
930.9  41879.39  22186.49  52.98
931.9  42070.56  22274.64  52.95
932.9  42412.10  22432.11  52.89
934.0  42452.50  22433.55  52.84
935.0  42440.57  22421.31  52.83
936.0  42488.02  22409.16  52.74
937.0  42429.47  22380.05  52.75
938.1  42380.86  22332.37  52.69
939.1  42337.65  22315.70  52.71
940.1  42429.30  22331.12  52.63
941.1  42615.86  22443.04  52.66
942.1  42903.92  22542.16  52.54
943.1  43057.09  22627.27  52.55
944.1  43342.63  22716.63  52.41
945.2  43356.60  22748.54  52.47
946.2  43482.48  22733.32  52.28
947.2  43549.00  22762.47  52.27
948.2  43743.16  22825.67  52.18
949.2  43840.88  22853.24  52.13
950.2  43906.25  22845.30  52.03
951.2  44010.96  22863.23  51.95
952.2  44061.91  22866.28  51.90
953.2  44318.14  22916.69  51.71
954.2  44380.80  22936.11  51.68
955.2  44428.35  22916.75  51.58
956.2  44460.20  22870.91  51.44
957.2  44542.35  22904.46  51.42
958.2  44649.94  22893.56  51.27
959.2  44705.25  22923.72  51.28
960.1  44813.66  22938.42  51.19
961.1  44928.76  22959.33  51.10
962.1  44958.75  22942.50  51.03
963.1  44986.01  22975.82  51.07
964.1  45106.16  22995.74  50.98
965.1  45270.70  23054.81  50.93
966.1  45207.41  23082.40  51.06
967.0  45355.66  23091.87  50.91
968.0  45441.48  23099.07  50.83
969.0  45453.60  23160.51  50.95
970.0  45557.64  23184.95  50.89
971.0  45615.57  23198.17  50.86
971.9  45699.86  23249.07  50.87
972.9  45781.93  23256.50  50.80
973.9  45829.88  23288.94  50.82
974.9  45973.78  23352.27  50.79
975.8  45979.65  23383.39  50.86
976.8  46106.16  23470.04  50.90
977.8  46097.80  23502.34  50.98
978.8  46103.70  23585.30  51.16
979.7  46387.55  23576.36  50.82
980.7  46405.76  23673.43  51.01
981.7  46694.84  23889.44  51.16
982.6  46857.76  24024.21  51.27
983.6  47433.79  24290.39  51.21
984.6  47818.98  24473.01  51.18
985.5  48063.24  24771.93  51.54
986.5  48770.77  25041.45  51.35
987.5  50043.63  25553.41  51.06
988.4  50895.90  26248.20  51.57
989.4  52431.75  26698.58  50.92
990.4  53425.02  27150.42  50.82
991.3  55387.31  27699.34  50.01
992.3  55950.90  28249.33  50.49
993.2  58118.31  29081.59  50.04
994.2  59457.94  29889.21  50.27
995.2  60710.63  29506.68  48.60
996.1  61737.77  30481.75  49.37
997.1  61885.85  29965.78  48.42
998.0  61668.00  29646.32  48.07
999.0  61787.86  29870.15  48.34
1000.0  62252.49  30701.23  49.32
1000.9  62564.91  30220.03  48.30
1001.9  61626.12  30218.42  49.04
1002.8  61885.09  29771.75  48.11
1003.8  61970.58  30490.69  49.20
1004.8  62064.96  29389.59  47.35
961.5  55881.62  24975.93  44.69
965.5  54589.44  24764.27  45.36
969.5  52393.79  24424.66  46.62
973.4  50126.74  23996.52  47.87
977.4  48345.52  23577.18  48.77
981.4  47464.01  23543.88  49.60
985.3  47176.98  23671.53  50.18
989.3  47304.75  23887.11  50.50
993.3  47508.66  24059.08  50.64
997.2  47541.75  24096.70  50.69
1001.2  47520.33  24108.11  50.73
1005.2  47455.76  24136.17  50.86
1009.1  47529.68  24250.10  51.02
1013.1  47663.39  24418.57  51.23
1017.1  47785.75  24571.18  51.42
1021.0  47816.50  24644.63  51.54
1025.0  47819.30  24701.51  51.66
1029.0  47652.00  24670.74  51.77
1032.9  47495.63  24645.92  51.89
1036.9  47497.16  24702.22  52.01
1040.9  47608.97  24819.02  52.13
1044.8  47827.54  24976.66  52.22
1048.8  48004.98  25111.78  52.31
1052.7  48133.54  25214.64  52.38
1056.7  48188.20  25260.63  52.42
1060.7  48194.60  25288.07  52.47
1064.6  48198.22  25316.24  52.53
1068.6  48113.17  25277.77  52.54
1072.5  48026.55  25230.54  52.53
1076.5  47975.49  25216.53  52.56
1080.4  47966.69  25194.63  52.53
1084.4  48069.59  25218.49  52.46
1088.3  48170.15  25260.23  52.44
1092.3  48152.58  25221.19  52.38
1096.2  48142.77  25168.50  52.28
1100.2  48183.64  25144.69  52.19
1104.1  48079.94  25048.46  52.10
1108.1  48035.13  24979.56  52.00
1112.0  47943.86  24877.73  51.89
1116.0  47742.57  24696.67  51.73
1119.9  47581.47  24519.95  51.53
1123.9  47666.30  24443.66  51.28
1127.8  47639.04  24256.00  50.92
1131.8  47617.38  24020.78  50.45
1135.7  47659.94  23759.10  49.85
1139.6  47675.62  23404.37  49.09
1143.6  47638.82  23004.90  48.29
1147.5  47616.88  22611.90  47.49
1151.4  47500.80  22196.73  46.73
1155.4  47513.75  21925.66  46.15
1159.3  47522.52  21743.28  45.75
1163.2  47363.89  21530.34  45.46
1167.2  47347.50  21411.10  45.22
1171.1  47369.57  21336.35  45.04
1175.0  47314.40  21239.29  44.89
1179.0  47268.08  21155.74  44.76
1182.9  47358.68  21128.78  44.61
1186.8  47350.70  21065.67  44.49
1190.7  47139.70  20911.53  44.36
1194.7  46883.87  20746.10  44.25
1198.6  46652.76  20614.44  44.19
1202.5  46480.48  20539.79  44.19
1206.4  46340.80  20497.35  44.23
1210.3  46236.01  20494.75  44.33
1214.2  46114.66  20511.12  44.48
1218.2  45952.68  20518.25  44.65
1222.1  45800.88  20537.53  44.84
1226.0  45686.61  20568.98  45.02
1229.9  45598.02  20608.52  45.20
1233.8  45484.04  20625.99  45.35
1237.7  45416.66  20651.51  45.47
1241.6  45332.53  20651.89  45.56
1245.5  45166.97  20616.31  45.64
1249.4  45023.84  20592.62  45.74
1253.3  44894.25  20563.29  45.80
1257.2  44816.00  20542.14  45.84
1261.1  44716.86  20500.45  45.85
1265.0  44587.73  20434.47  45.83
1268.9  44400.64  20332.61  45.79
1272.8  44460.00  20341.40  45.75
1276.7  44653.74  20406.77  45.70
1280.6  44733.81  20406.19  45.62
1284.5  44649.07  20312.64  45.49
1288.4  44631.63  20235.34  45.34
1292.3  44511.50  20097.92  45.15
1296.2  44360.33  19924.38  44.91
1300.1  44197.71  19720.79  44.62
1303.9  43963.66  19458.65  44.26
1307.8  43715.49  19168.10  43.85
1311.7  43464.03  18852.12  43.37
1315.6  43214.30  18519.56  42.86
1319.5  42962.15  18146.70  42.24
1323.3  42734.84  17758.11  41.55
1327.2  42525.95  17364.43  40.83
1331.1  42285.13  16950.70  40.09
1335.0  41985.32  16500.23  39.30
1338.8  41775.29  16082.33  38.50
1342.7  41609.18  15692.20  37.71
1346.5  41242.98  15235.42  36.94
1350.4  40931.78  14817.87  36.20
1354.3  40517.39  14377.33  35.48
1358.1  40047.65  13923.87  34.77
1362.0  39764.09  13527.33  34.02
1365.8  39670.89  13173.01  33.21
1369.7  39786.92  12837.60  32.27
1373.5  39741.56  12349.62  31.07
1377.4  39487.75  11677.82  29.57
1381.2  39276.49  10869.93  27.68
