/*** Spectra Vista SIG Data ***/
name= GT.sig
comm= SIG file reprocesed for matching/overlap;Averaged Ref/Tar of files: GT1,GT2,GT3
data=
346.4  468.20  171.99  36.73
347.9  473.76  175.18  36.98
349.5  521.04  171.08  32.83
351.1  558.48  180.96  32.40
352.6  585.06  185.01  31.62
354.2  625.05  186.54  29.84
355.7  673.50  202.05  30.00
357.3  724.71  210.94  29.11
358.8  751.43  208.54  27.75
360.4  798.47  216.91  27.17
361.9  821.87  218.24  26.55
363.5  851.78  221.60  26.02
365.1  887.68  220.19  24.81
366.6  918.37  222.11  24.19
368.2  973.68  219.92  22.59
369.7  1008.89  221.48  21.95
371.3  1073.36  229.93  21.42
372.8  1148.72  235.17  20.47
374.4  1191.49  233.07  19.56
375.9  1247.87  241.08  19.32
377.4  1278.23  242.86  19.00
379.0  1330.29  244.00  18.34
380.5  1360.26  243.64  17.91
382.1  1412.49  240.84  17.05
383.6  1460.03  241.45  16.54
385.2  1529.00  240.17  15.71
386.7  1608.26  245.03  15.24
388.3  1679.42  254.54  15.16
389.8  1759.55  259.86  14.77
391.3  1843.67  275.72  14.95
392.9  1897.62  283.08  14.92
394.4  1955.58  291.80  14.92
395.9  2019.02  311.38  15.42
397.5  2131.80  326.23  15.30
399.0  2240.25  335.27  14.97
400.6  2303.62  317.90  13.80
402.1  2342.64  316.91  13.53
403.6  2375.92  311.28  13.10
405.1  2451.81  314.19  12.81
406.7  2542.40  324.05  12.75
408.2  2650.73  330.78  12.48
409.7  2746.24  346.83  12.63
411.3  2843.51  356.49  12.54
412.8  2936.43  378.41  12.89
414.3  3034.90  388.34  12.80
415.8  3152.50  410.00  13.01
417.4  3253.58  424.62  13.05
418.9  3339.60  436.43  13.07
420.4  3424.70  445.33  13.00
421.9  3487.22  446.49  12.80
423.5  3546.87  453.38  12.78
425.0  3613.98  455.50  12.60
426.5  3695.85  462.25  12.51
428.0  3801.23  467.29  12.29
429.5  3926.30  476.97  12.15
431.1  4071.24  492.14  12.09
432.6  4225.66  507.54  12.01
434.1  4373.60  525.20  12.01
435.6  4514.36  537.93  11.92
437.1  4642.95  556.73  11.99
438.6  4769.06  572.47  12.00
440.1  4906.69  587.81  11.98
441.6  5042.30  609.10  12.08
443.1  5179.95  630.45  12.17
444.7  5318.34  655.20  12.32
446.2  5433.01  679.92  12.51
447.7  5551.25  705.14  12.70
449.2  5676.48  730.80  12.87
450.7  5788.64  748.45  12.93
452.2  5916.62  761.44  12.87
453.7  6028.91  784.11  13.01
455.2  6201.73  805.66  12.99
456.7  6390.56  832.48  13.03
458.2  6607.30  865.60  13.10
459.7  6823.25  896.00  13.13
461.2  7031.76  923.39  13.13
462.7  7219.07  955.26  13.23
464.2  7396.86  975.39  13.19
465.7  7583.22  1006.65  13.27
467.2  7742.35  1026.35  13.26
468.7  7912.00  1055.33  13.34
470.2  8015.91  1088.09  13.57
471.7  8177.13  1126.54  13.78
473.2  8446.52  1165.88  13.80
474.6  8688.33  1170.47  13.47
476.1  8747.12  1164.23  13.31
477.6  8779.39  1166.34  13.28
479.1  8829.54  1180.57  13.37
480.6  8916.06  1200.94  13.47
482.1  9046.91  1220.82  13.49
483.6  9204.08  1249.77  13.58
485.1  9394.00  1283.29  13.66
486.6  9626.34  1319.92  13.71
488.0  9867.00  1360.40  13.79
489.5  10130.90  1413.93  13.96
491.0  10387.73  1467.38  14.13
492.5  10649.88  1529.01  14.36
494.0  10928.34  1596.03  14.60
495.4  11158.95  1667.33  14.94
496.9  11406.10  1742.65  15.28
498.4  11649.48  1829.31  15.70
499.9  11878.23  1920.45  16.17
501.4  12101.58  2018.68  16.68
502.8  12308.24  2128.77  17.30
504.3  12497.40  2248.20  17.99
505.8  12681.02  2374.53  18.73
507.2  12808.72  2495.05  19.48
508.7  12896.48  2628.10  20.38
510.2  12964.78  2768.84  21.36
511.6  13008.39  2908.56  22.36
513.1  13093.74  3068.36  23.43
514.6  13195.49  3232.36  24.50
516.0  13281.41  3402.79  25.62
517.5  13429.99  3598.40  26.79
519.0  13603.01  3806.38  27.98
520.5  13772.72  4019.37  29.18
521.9  13993.28  4246.79  30.35
523.4  14243.35  4479.30  31.45
524.8  14493.24  4716.96  32.55
526.3  14778.04  4953.26  33.52
527.8  15074.01  5187.35  34.41
529.2  15339.71  5410.21  35.27
530.7  15629.94  5628.09  36.01
532.1  15903.48  5831.22  36.67
533.6  16214.37  6040.98  37.26
535.0  16534.98  6245.66  37.77
536.5  16856.03  6440.48  38.21
538.0  17178.24  6630.44  38.60
539.4  17501.02  6817.67  38.96
540.9  17879.62  7017.88  39.25
542.3  18237.67  7189.66  39.42
543.8  18504.51  7317.81  39.55
545.2  18600.74  7399.32  39.78
546.6  18637.00  7464.25  40.05
548.1  18690.38  7533.39  40.31
549.5  18745.60  7602.04  40.55
551.0  18790.92  7648.65  40.70
552.4  18868.34  7708.57  40.85
553.9  18922.09  7739.07  40.90
555.3  18999.63  7769.97  40.90
556.8  19143.87  7814.12  40.82
558.2  19276.31  7846.31  40.70
559.6  19441.66  7876.64  40.51
561.1  19660.88  7917.81  40.27
562.5  19883.82  7960.15  40.03
564.0  20177.05  8012.44  39.71
565.4  20444.07  8040.45  39.33
566.8  20774.24  8081.05  38.90
568.3  21077.79  8098.12  38.42
569.7  21403.31  8103.99  37.86
571.1  21706.83  8100.92  37.32
572.6  22010.94  8092.44  36.77
574.0  22299.75  8077.85  36.22
575.4  22570.31  8059.22  35.71
576.9  22820.49  8038.51  35.22
578.3  23040.88  8011.87  34.77
579.7  23243.15  7987.63  34.37
581.1  23410.31  7950.63  33.96
582.6  23592.46  7921.46  33.58
584.0  23735.52  7884.63  33.22
585.4  23971.18  7878.41  32.87
586.8  24286.87  7890.38  32.49
588.3  24642.54  7921.68  32.15
589.7  24935.04  7947.81  31.87
591.1  25126.37  7950.11  31.64
592.5  25213.30  7932.33  31.46
594.0  25248.06  7905.79  31.31
595.4  25246.58  7870.16  31.17
596.8  25248.80  7842.12  31.06
598.2  25256.70  7815.79  30.95
599.6  25254.00  7783.20  30.82
601.0  25321.45  7766.68  30.67
602.4  25392.58  7740.69  30.48
603.9  25508.50  7729.13  30.30
605.3  25652.08  7716.06  30.08
606.7  25770.60  7686.30  29.83
608.1  26003.60  7678.29  29.53
609.5  26249.20  7674.29  29.24
610.9  26543.12  7670.80  28.90
612.3  26820.62  7657.86  28.55
613.7  27191.20  7669.46  28.21
615.1  27470.34  7650.45  27.85
616.5  27748.85  7644.08  27.55
617.9  28163.94  7673.84  27.25
619.3  28559.37  7692.50  26.94
620.7  29021.55  7727.78  26.63
622.1  29524.34  7841.18  26.56
623.5  30070.32  8026.83  26.69
624.9  30686.25  8256.50  26.91
626.3  31117.56  8441.17  27.13
627.7  30854.43  8424.61  27.30
629.1  30617.27  8387.98  27.40
630.5  30534.25  8356.96  27.37
631.9  30583.88  8341.12  27.27
633.3  30636.73  8282.47  27.03
634.7  30802.72  8225.42  26.70
636.1  30887.16  8158.79  26.41
637.5  30991.21  8059.84  26.01
638.9  31137.59  7914.73  25.42
640.2  31275.86  7741.66  24.75
641.6  31334.94  7523.10  24.01
643.0  31307.82  7289.14  23.28
644.4  31297.86  7053.28  22.54
645.8  31223.60  6774.12  21.70
647.2  31327.01  6552.91  20.92
648.5  31378.61  6321.87  20.15
649.9  31215.99  5954.29  19.07
651.3  31061.55  5593.85  18.01
652.7  30880.50  5400.05  17.49
654.1  30705.72  5393.14  17.56
655.5  30448.41  5416.63  17.79
656.8  30219.54  5395.86  17.86
658.2  30347.48  5387.54  17.75
659.6  30667.01  5365.71  17.50
660.9  30915.41  5316.14  17.20
662.3  31175.28  5258.14  16.87
663.7  31418.10  5190.50  16.52
665.0  31622.76  5114.97  16.17
666.4  31821.65  5044.80  15.85
667.8  32088.83  5005.30  15.60
669.1  32304.87  4968.67  15.38
670.5  32567.66  4945.23  15.18
671.9  32723.64  4924.22  15.05
673.2  32957.22  4944.13  15.00
674.6  33165.65  4977.21  15.01
676.0  33416.99  5028.23  15.05
677.3  33670.84  5109.01  15.17
678.7  33959.63  5232.81  15.41
680.0  34360.72  5411.06  15.75
681.4  34770.40  5640.58  16.22
682.8  35166.95  5922.21  16.84
684.1  35575.02  6285.24  17.67
685.5  35948.61  6754.23  18.79
686.8  36307.14  7320.96  20.16
688.2  36654.12  7999.66  21.82
689.5  36792.82  8762.00  23.81
690.9  36894.22  9619.13  26.07
692.2  37000.50  10559.13  28.54
693.6  37086.31  11570.98  31.20
694.9  37102.94  12635.95  34.06
696.2  37172.03  13756.88  37.01
697.6  37238.58  14918.25  40.06
698.9  37321.68  16075.84  43.07
700.3  37412.04  17244.20  46.09
701.6  37521.51  18400.87  49.04
703.0  37648.39  19539.65  51.90
704.3  37727.46  20618.84  54.65
705.6  37779.39  21634.13  57.26
707.0  37853.11  22611.38  59.73
708.3  37804.36  23498.28  62.16
709.6  37779.31  24327.87  64.39
711.0  37700.05  25084.24  66.54
712.3  37603.29  25779.51  68.56
713.6  37599.66  26517.33  70.53
714.9  37564.50  27169.09  72.33
716.3  37606.65  27862.42  74.09
717.6  37655.10  28529.78  75.77
718.9  37643.31  29096.25  77.29
720.2  37519.65  29570.24  78.81
721.6  37437.79  30010.63  80.16
722.9  37295.06  30354.75  81.39
724.2  37099.21  30588.56  82.45
725.5  36957.59  30848.74  83.47
726.8  36833.83  31086.69  84.40
728.1  36764.75  31353.91  85.28
729.5  36694.32  31572.15  86.04
730.8  36660.60  31758.65  86.63
732.1  36590.42  31904.38  87.19
733.4  36549.03  32051.80  87.70
734.7  36509.02  32170.22  88.12
736.0  36510.50  32325.56  88.54
737.3  36452.29  32411.94  88.92
738.6  36538.42  32633.90  89.31
739.9  36706.85  32899.21  89.63
741.2  36841.35  33138.11  89.95
742.5  37078.82  33452.29  90.22
743.8  37494.19  33914.65  90.45
745.1  38118.44  34563.90  90.68
746.4  38876.11  35339.17  90.90
747.7  39639.96  36181.30  91.27
749.0  40400.48  37028.84  91.65
750.3  40850.46  37575.28  91.98
751.6  40764.46  37622.37  92.29
752.9  40356.61  37293.19  92.41
754.2  39863.99  36889.46  92.54
755.4  39350.05  36430.22  92.58
756.7  39155.03  36286.80  92.67
758.0  39142.09  36313.50  92.77
759.3  39351.46  36546.46  92.87
760.6  39645.76  36833.21  92.91
761.9  39928.94  37130.47  92.99
763.1  40078.15  37317.44  93.11
764.4  40287.45  37554.65  93.22
765.7  40433.25  37729.25  93.31
767.0  40515.07  37875.27  93.48
768.2  40595.52  37992.64  93.59
769.5  40644.33  38077.22  93.68
770.8  40787.04  38258.17  93.80
772.0  40799.41  38301.36  93.88
773.3  40833.29  38389.21  94.01
774.6  40907.98  38519.02  94.16
775.8  40955.53  38649.49  94.37
777.1  40964.33  38711.35  94.50
778.4  40867.87  38686.60  94.66
779.6  40816.98  38666.62  94.73
780.9  40688.00  38590.67  94.85
782.1  40484.72  38454.58  94.99
783.4  40464.32  38486.93  95.11
784.6  40463.12  38532.13  95.23
785.9  40670.74  38782.67  95.36
787.1  41171.80  39300.56  95.46
788.4  41528.97  39851.16  95.96
789.6  41482.13  40039.14  96.52
790.9  41134.16  39782.71  96.71
792.1  40655.28  39355.57  96.80
793.4  40180.32  38953.44  96.95
794.6  39846.60  38724.05  97.18
795.8  39587.54  38530.76  97.33
797.1  39290.10  38295.04  97.47
798.3  39054.26  38130.13  97.63
799.5  38943.25  38065.88  97.75
800.8  38778.22  37986.15  97.96
802.0  38618.88  37899.45  98.14
803.2  38465.20  37795.49  98.26
804.5  38332.71  37747.05  98.47
805.7  38219.65  37666.39  98.55
806.9  38073.35  37586.91  98.72
808.1  37984.05  37528.03  98.80
809.4  37906.28  37488.07  98.90
810.6  37824.15  37425.27  98.95
811.8  37796.29  37405.34  98.97
813.0  37827.58  37432.10  98.95
814.2  37840.50  37455.69  98.98
815.4  37955.24  37599.23  99.06
816.6  38027.91  37677.34  99.08
817.9  38102.35  37767.83  99.12
819.1  38072.96  37726.70  99.09
820.3  37949.69  37617.91  99.13
821.5  37894.61  37544.13  99.08
822.7  37866.54  37474.69  98.97
823.9  37906.28  37459.97  98.82
825.1  37943.15  37441.34  98.68
826.3  38020.73  37432.47  98.45
827.5  38108.05  37419.10  98.19
828.7  38176.32  37427.72  98.04
829.9  38262.68  37396.19  97.74
831.0  38386.63  37418.62  97.48
832.2  38533.16  37441.48  97.17
833.4  38634.36  37465.81  96.98
834.6  38746.88  37501.57  96.79
835.8  38872.58  37540.13  96.57
837.0  39026.76  37590.15  96.32
838.1  39200.00  37714.60  96.21
839.3  39334.99  37809.87  96.12
840.5  39499.16  37906.77  95.97
841.7  39675.29  38012.78  95.81
842.9  39834.34  38124.91  95.71
844.0  40002.80  38225.18  95.56
845.2  40188.33  38375.37  95.49
846.4  40315.24  38482.32  95.45
847.5  40575.08  38693.96  95.36
848.7  40794.29  38913.36  95.39
849.9  41043.27  39126.46  95.33
851.0  41176.72  39248.50  95.32
852.2  41283.01  39371.71  95.37
853.3  41336.03  39390.85  95.29
854.5  41385.60  39411.72  95.23
855.6  41408.01  39408.06  95.17
856.8  41491.09  39432.85  95.04
857.9  41535.42  39462.64  95.01
859.1  41657.80  39573.57  95.00
860.2  41711.76  39555.63  94.83
861.4  41789.90  39610.10  94.78
862.5  41857.52  39654.43  94.74
863.7  41978.22  39714.56  94.61
864.8  42001.40  39713.80  94.55
865.9  42003.19  39667.43  94.44
867.1  42077.89  39722.35  94.40
868.2  42118.25  39713.84  94.29
869.3  42153.63  39723.18  94.23
870.5  42092.46  39636.77  94.17
871.6  42122.53  39606.60  94.03
872.7  42223.14  39635.92  93.87
873.9  42262.83  39638.23  93.79
875.0  42247.20  39591.57  93.71
876.1  42225.11  39526.67  93.61
877.2  42279.84  39504.52  93.44
878.3  42302.12  39479.85  93.33
879.4  42284.06  39444.29  93.28
880.5  42343.92  39443.16  93.15
881.7  42326.05  39395.31  93.08
882.8  42351.34  39438.03  93.12
883.9  42430.09  39443.78  92.96
885.0  42357.32  39387.98  92.99
886.1  42357.47  39337.68  92.87
887.2  42241.92  39176.75  92.74
888.3  42147.85  39081.41  92.72
889.4  42045.32  38926.19  92.58
890.5  41945.29  38826.56  92.56
891.6  41864.40  38714.04  92.47
892.7  41844.69  38629.81  92.32
893.8  41881.85  38594.59  92.15
894.9  41879.31  38513.38  91.96
896.0  41812.69  38455.26  91.97
897.0  41850.92  38419.51  91.80
898.1  41821.61  38371.31  91.75
899.2  41852.54  38325.13  91.57
900.3  41747.94  38190.70  91.48
901.4  41622.41  38061.96  91.45
902.4  41658.53  38050.46  91.34
903.5  41604.82  37914.32  91.13
904.6  41550.72  37878.11  91.16
905.7  41565.54  37799.50  90.94
906.7  41536.49  37704.97  90.78
907.8  41558.34  37677.88  90.66
908.9  41493.73  37545.18  90.48
909.9  41451.58  37448.95  90.34
911.0  41358.23  37342.06  90.29
912.1  41297.17  37209.09  90.10
913.1  41189.72  37056.59  89.97
914.2  41099.85  36850.88  89.66
915.2  41068.89  36754.88  89.50
916.3  41034.15  36669.10  89.36
917.3  40975.74  36540.74  89.18
918.4  40862.80  36341.71  88.94
919.4  40836.29  36214.67  88.68
920.5  40782.84  36086.13  88.48
921.5  40833.45  35974.81  88.10
922.6  40729.18  35763.11  87.81
923.6  40739.49  35643.51  87.49
924.7  40774.75  35489.33  87.04
925.7  40746.72  35287.76  86.60
926.7  40808.40  35173.48  86.19
927.8  40839.01  35063.19  85.86
928.8  40966.59  34976.21  85.38
929.9  41048.46  34877.81  84.97
930.9  41217.18  34834.79  84.52
931.9  41378.61  34745.50  83.97
932.9  41679.25  34808.32  83.51
934.0  41702.58  34640.84  83.07
935.0  41757.18  34428.47  82.45
936.0  41670.71  34210.34  82.10
937.0  41632.50  33928.51  81.50
938.1  41580.55  33657.03  80.94
939.1  41508.45  33426.68  80.53
940.1  41591.64  33249.44  79.94
941.1  41779.29  33204.45  79.48
942.1  41991.60  33139.21  78.92
943.1  42156.63  33046.37  78.39
944.1  42391.18  32945.20  77.72
945.2  42445.20  32769.17  77.20
946.2  42493.04  32594.27  76.70
947.2  42572.63  32414.31  76.14
948.2  42750.54  32289.53  75.53
949.2  42846.38  32051.91  74.81
950.2  42880.60  31797.49  74.15
951.2  42968.52  31592.12  73.52
952.2  43001.40  31415.72  73.06
953.2  43164.71  31287.88  72.48
954.2  43310.48  31104.75  71.82
955.2  43368.34  30878.62  71.20
956.2  43301.73  30657.71  70.80
957.2  43392.87  30543.71  70.39
958.2  43492.10  30397.18  69.89
959.2  43506.45  30291.90  69.63
960.1  43588.22  30196.32  69.28
961.1  43692.83  30138.19  68.98
962.1  43658.44  30017.03  68.75
963.1  43782.00  29990.67  68.50
964.1  43817.42  29974.27  68.41
965.1  43908.74  30036.60  68.41
966.1  44007.38  29980.89  68.13
967.0  44141.86  29947.14  67.84
968.0  44131.86  29944.39  67.85
969.0  44255.20  30034.90  67.87
970.0  44255.36  30022.28  67.84
971.0  44316.83  30042.02  67.79
971.9  44400.90  30009.97  67.59
972.9  44577.14  30144.28  67.62
973.9  44494.78  30198.08  67.87
974.9  44573.29  30290.09  67.96
975.8  44702.44  30430.77  68.07
976.8  44666.28  30502.46  68.29
977.8  44950.93  30583.20  68.04
978.8  44877.90  30662.03  68.32
979.7  45104.10  30845.58  68.39
981.4  47578.80  29602.03  62.22
985.3  47203.20  30026.48  63.61
989.3  47137.31  30610.69  64.94
993.3  47133.16  31169.05  66.13
997.2  47029.21  31591.99  67.18
1001.2  46955.35  31967.30  68.08
1005.2  46914.32  32361.30  68.98
1009.1  47038.13  32858.63  69.86
1013.1  47236.75  33452.10  70.82
1017.1  47375.30  34077.07  71.93
1021.0  47429.61  34632.57  73.02
1025.0  47461.87  35171.60  74.10
1029.0  47354.18  35594.60  75.17
1032.9  47271.77  36016.59  76.19
1036.9  47308.70  36512.38  77.18
1040.9  47476.08  37068.38  78.08
1044.8  47747.63  37648.10  78.85
1048.8  47970.59  38174.42  79.58
1052.7  48104.60  38627.41  80.30
1056.7  48183.46  38931.82  80.80
1060.7  48250.82  39163.48  81.17
1064.6  48272.17  39340.92  81.50
1068.6  48190.54  39370.70  81.70
1072.5  48116.11  39327.29  81.73
1076.5  48076.67  39253.74  81.65
1080.4  48048.88  39134.44  81.45
1084.4  48150.59  39047.66  81.09
1088.3  48279.53  38918.96  80.61
1092.3  48252.92  38622.68  80.04
1096.2  48221.83  38283.98  79.39
1100.2  48245.69  37963.87  78.69
1104.1  48124.97  37510.59  77.94
1108.1  48059.38  37097.48  77.19
1112.0  47955.87  36643.08  76.41
1116.0  47754.46  36082.82  75.56
1119.9  47569.76  35462.66  74.55
1123.9  47623.80  34862.30  73.20
1127.8  47592.96  33954.56  71.34
1131.8  47556.42  32779.97  68.93
1135.7  47568.82  31441.69  66.10
1139.6  47554.30  29985.55  63.06
1143.6  47510.71  28570.23  60.13
1147.5  47481.98  27360.59  57.62
1151.4  47337.52  26330.78  55.62
1155.4  47322.86  25667.63  54.24
1159.3  47329.81  25242.33  53.33
1163.2  47159.49  24867.71  52.73
1167.2  47113.86  24669.08  52.36
1171.1  47117.13  24536.16  52.07
1175.0  47022.16  24379.67  51.85
1179.0  46962.63  24253.03  51.64
1182.9  47045.30  24185.97  51.41
1186.8  47019.62  24073.22  51.20
1190.7  46784.64  23876.18  51.03
1194.7  46508.35  23687.65  50.93
1198.6  46264.68  23550.45  50.90
1202.5  46100.54  23463.02  50.90
1206.4  45962.62  23412.78  50.94
1210.3  45829.98  23406.32  51.07
1214.2  45707.13  23431.18  51.26
1218.2  45554.16  23456.23  51.49
1222.1  45384.95  23504.68  51.79
1226.0  45257.55  23573.46  52.09
1229.9  45156.00  23640.12  52.35
1233.8  45033.17  23694.36  52.62
1237.7  44950.68  23762.20  52.86
1241.6  44841.64  23803.54  53.08
1245.5  44683.61  23801.45  53.27
1249.4  44538.65  23798.27  53.43
1253.3  44401.40  23788.62  53.58
1257.2  44324.52  23782.38  53.66
1261.1  44209.48  23736.24  53.69
1265.0  44086.55  23660.77  53.67
1268.9  43910.05  23540.15  53.61
1272.8  43969.80  23533.40  53.52
1276.7  44155.69  23553.50  53.34
1280.6  44249.88  23481.45  53.07
1284.5  44188.89  23297.28  52.72
1288.4  44167.03  23105.44  52.31
1292.3  44060.50  22836.00  51.83
1296.2  43934.23  22509.01  51.23
1300.1  43787.98  22139.03  50.56
1303.9  43564.57  21698.15  49.81
1307.8  43339.22  21216.69  48.95
1311.7  43109.06  20693.45  48.00
1315.6  42877.90  20137.40  46.96
1319.5  42633.84  19548.15  45.85
1323.3  42417.44  18959.68  44.70
1327.2  42218.70  18384.45  43.55
1331.1  42002.86  17801.61  42.38
1335.0  41739.72  17213.29  41.24
1338.8  41543.11  16681.93  40.16
1342.7  41389.31  16189.76  39.12
1346.5  41042.00  15654.54  38.14
1350.4  40741.74  15195.47  37.30
1354.3  40332.24  14725.94  36.51
1358.1  39895.31  14234.48  35.68
1362.0  39644.33  13799.97  34.81
1365.8  39567.12  13391.52  33.85
1369.7  39683.68  13002.11  32.76
1373.5  39615.26  12506.23  31.57
1377.4  39354.79  11873.00  30.17
1381.2  39167.92  11143.08  28.45
1385.1  39160.09  10374.14  26.49
1389.0  39060.88  9580.84  24.53
1392.8  38834.72  8818.27  22.71
1396.6  38680.88  8156.01  21.09
1400.5  38476.57  7567.35  19.67
1404.3  38299.58  7084.70  18.50
1408.2  38263.03  6721.88  17.57
1412.0  38218.70  6428.98  16.82
1415.8  38249.29  6216.54  16.25
1419.6  38208.11  6050.84  15.84
1423.5  38172.20  5922.83  15.52
1427.3  38125.77  5834.87  15.30
1431.1  38099.78  5776.85  15.16
1434.9  38010.73  5706.29  15.01
1438.8  37949.80  5655.55  14.90
1442.6  37913.52  5623.83  14.83
1446.4  37795.09  5594.24  14.80
1450.2  37700.99  5590.27  14.83
1454.0  37583.52  5579.16  14.84
1457.8  37547.69  5587.79  14.88
1461.6  37527.24  5611.29  14.95
1465.4  37404.28  5629.50  15.05
