/*** Spectra Vista SIG Data ***/
name= RS2.sig
comm= SIG file reprocesed for matching/overlap;Averaged Ref/Tar of files: RD6S4,RD6S5,RD6S6
data=
346.4  350.35  40.13  11.45
347.9  381.21  37.86  9.93
349.5  410.28  41.19  10.04
351.1  433.68  39.94  9.21
352.6  475.96  41.96  8.82
354.2  499.06  46.03  9.22
355.7  540.48  45.57  8.43
357.3  582.54  47.39  8.14
358.8  588.91  47.53  8.07
360.4  636.67  48.78  7.66
361.9  668.64  48.75  7.29
363.5  692.50  45.24  6.53
365.1  712.57  49.70  6.97
366.6  747.47  49.72  6.65
368.2  792.37  46.78  5.90
369.7  840.74  47.45  5.64
371.3  898.85  47.63  5.30
372.8  941.22  47.59  5.06
374.4  986.23  50.29  5.10
375.9  1017.83  49.87  4.90
377.4  1052.18  48.57  4.62
379.0  1086.82  49.44  4.55
380.5  1123.29  48.21  4.29
382.1  1153.93  47.87  4.15
383.6  1194.95  45.93  3.84
385.2  1251.25  45.28  3.62
386.7  1299.60  44.95  3.46
388.3  1372.34  47.83  3.49
389.8  1424.66  48.68  3.42
391.3  1483.01  49.39  3.33
392.9  1530.61  50.07  3.27
394.4  1562.39  52.82  3.38
395.9  1621.81  55.47  3.42
397.5  1711.90  60.08  3.51
399.0  1784.48  57.27  3.21
400.6  1838.09  55.28  3.01
402.1  1856.31  50.74  2.73
403.6  1888.03  49.39  2.62
405.1  1944.54  46.61  2.40
406.7  2010.40  47.34  2.35
408.2  2079.37  48.71  2.34
409.7  2148.16  49.73  2.32
411.3  2213.53  50.18  2.27
412.8  2271.65  50.72  2.23
414.3  2341.03  54.66  2.33
415.8  2417.50  54.50  2.25
417.4  2490.79  54.99  2.21
418.9  2548.98  55.32  2.17
420.4  2593.45  57.16  2.20
421.9  2640.22  55.82  2.11
423.5  2679.41  54.95  2.05
425.0  2722.85  53.79  1.98
426.5  2778.88  54.04  1.94
428.0  2849.90  52.41  1.84
429.5  2939.79  54.12  1.84
431.1  3042.79  53.92  1.77
432.6  3149.06  54.60  1.73
434.1  3259.99  57.37  1.76
435.6  3346.58  57.66  1.72
437.1  3441.75  58.76  1.71
438.6  3531.11  59.48  1.68
440.1  3611.12  61.85  1.71
441.6  3703.62  61.94  1.67
443.1  3787.76  65.48  1.73
444.7  3873.68  66.58  1.72
446.2  3941.61  67.78  1.72
447.7  4009.71  68.61  1.71
449.2  4084.56  69.84  1.71
450.7  4145.44  70.58  1.70
452.2  4210.01  70.21  1.67
453.7  4291.20  70.15  1.63
455.2  4393.26  70.13  1.60
456.7  4515.28  71.22  1.58
458.2  4654.47  72.35  1.55
459.7  4795.00  74.43  1.55
461.2  4934.06  76.13  1.54
462.7  5054.96  79.24  1.57
464.2  5177.07  81.25  1.57
465.7  5301.12  82.86  1.56
467.2  5404.44  84.32  1.56
468.7  5508.00  87.20  1.58
470.2  5586.81  92.56  1.66
471.7  5702.38  95.80  1.68
473.2  5885.72  101.06  1.72
474.6  6027.25  97.60  1.62
476.1  6074.86  97.38  1.60
477.6  6093.70  96.44  1.58
479.1  6122.60  97.61  1.59
480.6  6163.05  97.86  1.59
482.1  6243.66  97.64  1.56
483.6  6332.42  99.61  1.57
485.1  6458.38  100.43  1.56
486.6  6604.00  102.80  1.56
488.0  6753.50  104.55  1.55
489.5  6913.82  107.24  1.55
491.0  7075.65  109.87  1.55
492.5  7238.97  112.86  1.56
494.0  7404.10  117.50  1.59
495.4  7549.58  119.35  1.58
496.9  7695.36  121.69  1.58
498.4  7836.28  126.49  1.61
499.9  7979.51  128.35  1.61
501.4  8103.78  132.74  1.64
502.8  8223.51  136.25  1.66
504.3  8333.10  138.48  1.66
505.8  8444.88  143.76  1.70
507.2  8514.20  145.95  1.71
508.7  8565.01  148.83  1.74
510.2  8590.79  151.73  1.77
511.6  8618.22  153.19  1.78
513.1  8670.26  157.70  1.82
514.6  8732.77  156.46  1.79
516.0  8783.27  159.71  1.82
517.5  8880.96  163.08  1.84
519.0  8994.65  165.67  1.84
520.5  9112.66  171.98  1.89
521.9  9263.01  175.01  1.89
523.4  9434.43  180.66  1.91
524.8  9608.27  187.56  1.95
526.3  9802.81  192.41  1.96
527.8  10000.35  199.05  1.99
529.2  10181.33  207.26  2.04
530.7  10383.39  212.44  2.05
532.1  10567.68  219.12  2.07
533.6  10773.42  228.71  2.12
535.0  10980.59  235.97  2.15
536.5  11186.70  245.18  2.19
538.0  11401.56  254.41  2.23
539.4  11601.83  262.95  2.27
540.9  11838.18  273.52  2.31
542.3  12056.36  282.87  2.35
543.8  12205.88  289.18  2.37
545.2  12241.58  296.29  2.42
546.6  12248.30  301.97  2.47
548.1  12260.70  305.75  2.49
549.5  12261.13  310.34  2.53
551.0  12260.01  315.43  2.57
552.4  12274.54  322.22  2.63
553.9  12279.40  329.00  2.68
555.3  12300.80  334.27  2.72
556.8  12360.66  341.06  2.76
558.2  12414.09  348.98  2.81
559.6  12499.51  358.60  2.87
561.1  12612.44  368.12  2.92
562.5  12742.28  378.51  2.97
564.0  12915.37  390.12  3.02
565.4  13070.62  402.66  3.08
566.8  13269.64  417.10  3.14
568.3  13461.39  432.86  3.22
569.7  13659.35  447.00  3.27
571.1  13859.91  463.17  3.34
572.6  14064.03  480.17  3.41
574.0  14250.23  497.42  3.49
575.4  14437.41  515.59  3.57
576.9  14612.77  534.53  3.66
578.3  14771.90  552.58  3.74
579.7  14927.19  571.09  3.83
581.1  15049.34  588.38  3.91
582.6  15179.87  608.50  4.01
584.0  15306.40  628.09  4.10
585.4  15471.50  648.69  4.19
586.8  15703.41  672.86  4.28
588.3  15959.97  697.32  4.37
589.7  16164.72  721.65  4.46
591.1  16308.26  740.55  4.54
592.5  16380.50  758.69  4.63
594.0  16416.90  774.63  4.72
595.4  16426.30  790.61  4.81
596.8  16438.21  808.24  4.92
598.2  16446.40  822.76  5.00
599.6  16446.15  839.87  5.11
601.0  16488.64  857.36  5.20
602.4  16524.83  876.11  5.30
603.9  16595.00  899.05  5.42
605.3  16677.56  920.82  5.52
606.7  16748.10  942.96  5.63
608.1  16880.08  968.90  5.74
609.5  17023.96  997.70  5.86
610.9  17200.20  1029.92  5.99
612.3  17363.60  1060.85  6.11
613.7  17583.26  1097.92  6.24
615.1  17730.09  1131.08  6.38
616.5  17885.32  1167.16  6.53
617.9  18120.27  1209.25  6.67
619.3  18343.55  1252.54  6.83
620.7  18613.68  1300.94  6.99
622.1  18877.69  1346.07  7.13
623.5  19168.37  1389.59  7.25
624.9  19495.88  1439.13  7.38
626.3  19705.80  1477.62  7.50
627.7  19502.63  1488.82  7.63
629.1  19316.59  1505.69  7.79
630.5  19234.56  1535.49  7.98
631.9  19243.16  1568.75  8.15
633.3  19227.78  1600.30  8.32
634.7  19307.14  1635.44  8.47
636.1  19335.07  1665.99  8.62
637.5  19378.14  1697.95  8.76
638.9  19457.31  1735.34  8.92
640.2  19514.53  1767.24  9.06
641.6  19531.98  1795.56  9.19
643.0  19504.65  1823.76  9.35
644.4  19507.28  1853.57  9.50
645.8  19449.04  1876.47  9.65
647.2  19526.59  1912.11  9.79
648.5  19579.91  1941.50  9.92
649.9  19492.88  1960.40  10.06
651.3  19428.45  1987.13  10.23
652.7  19344.30  2010.93  10.40
654.1  19217.52  2005.06  10.43
655.5  19076.42  1985.51  10.41
656.8  18936.77  1968.53  10.40
658.2  19052.33  1977.75  10.38
659.6  19274.42  2004.93  10.40
660.9  19463.87  2030.53  10.43
662.3  19650.11  2055.29  10.46
663.7  19826.10  2083.90  10.51
665.0  19986.79  2110.13  10.56
666.4  20146.14  2140.85  10.63
667.8  20346.56  2183.37  10.73
669.1  20529.76  2224.96  10.84
670.5  20738.52  2277.66  10.98
671.9  20872.26  2326.69  11.15
673.2  21059.41  2393.88  11.37
674.6  21230.21  2464.63  11.61
676.0  21420.32  2547.66  11.89
677.3  21614.12  2639.84  12.21
678.7  21817.38  2738.70  12.55
680.0  22089.50  2849.86  12.90
681.4  22373.47  2969.38  13.27
682.8  22657.86  3090.06  13.64
684.1  22942.53  3216.87  14.02
685.5  23200.94  3336.75  14.38
686.8  23448.72  3455.48  14.74
688.2  23672.40  3564.56  15.06
689.5  23749.65  3654.09  15.39
690.9  23825.77  3742.05  15.71
692.2  23869.28  3816.33  15.99
693.6  23926.69  3898.82  16.29
694.9  23920.11  3961.65  16.56
696.2  23942.14  4032.36  16.84
697.6  23961.85  4098.66  17.10
698.9  23992.32  4168.56  17.37
700.3  24038.01  4239.43  17.64
701.6  24084.68  4314.45  17.91
703.0  24137.54  4386.57  18.17
704.3  24141.49  4449.65  18.43
705.6  24144.66  4508.45  18.67
707.0  24151.61  4569.42  18.92
708.3  24094.31  4619.90  19.17
709.6  24038.25  4668.10  19.42
711.0  23936.43  4708.00  19.67
712.3  23827.16  4745.63  19.92
713.6  23789.01  4796.12  20.16
714.9  23716.29  4840.33  20.41
716.3  23686.39  4891.33  20.65
717.6  23672.15  4950.04  20.91
718.9  23614.96  4992.96  21.14
720.2  23494.56  5017.87  21.36
721.6  23399.74  5052.70  21.59
722.9  23270.63  5080.24  21.83
724.2  23091.17  5099.50  22.08
725.5  22957.02  5127.41  22.33
726.8  22832.78  5148.92  22.55
728.1  22750.67  5180.41  22.77
729.5  22685.44  5214.42  22.99
730.8  22628.18  5253.26  23.22
732.1  22547.20  5288.47  23.46
733.4  22493.78  5324.05  23.67
734.7  22430.29  5360.68  23.90
736.0  22412.65  5405.15  24.12
737.3  22354.35  5446.59  24.36
738.6  22392.88  5509.63  24.60
739.9  22486.41  5588.73  24.85
741.2  22557.99  5661.47  25.10
742.5  22690.46  5756.84  25.37
743.8  22954.18  5882.61  25.63
745.1  23356.68  6044.83  25.88
746.4  23838.13  6227.52  26.12
747.7  24340.83  6418.25  26.37
749.0  24845.90  6596.78  26.55
750.3  25109.11  6717.68  26.75
751.6  25056.94  6753.33  26.95
752.9  24812.33  6742.67  27.17
754.2  24511.78  6721.36  27.42
755.4  24190.11  6696.83  27.68
756.7  24095.29  6734.80  27.95
758.0  24119.44  6798.16  28.19
759.3  24282.67  6912.45  28.47
760.6  24509.10  7043.34  28.74
761.9  24709.31  7165.68  29.00
763.1  24854.26  7266.46  29.24
764.4  25021.13  7376.85  29.48
765.7  25148.50  7468.50  29.70
767.0  25255.87  7562.73  29.94
768.2  25351.20  7652.29  30.19
769.5  25424.49  7731.30  30.41
770.8  25570.26  7833.31  30.63
772.0  25587.81  7906.30  30.90
773.3  25669.17  7988.93  31.12
774.6  25760.75  8080.73  31.37
775.8  25826.13  8159.71  31.59
777.1  25851.30  8224.56  31.81
778.4  25836.83  8278.51  32.04
779.6  25861.37  8344.96  32.27
780.9  25820.00  8388.27  32.49
782.1  25728.02  8425.73  32.75
783.4  25750.40  8492.50  32.98
784.6  25767.74  8559.14  33.22
785.9  25975.04  8699.08  33.49
787.1  26352.59  8885.25  33.72
788.4  26662.70  9031.12  33.87
789.6  26677.46  9059.23  33.96
790.9  26422.83  9015.21  34.12
792.1  26144.60  8978.22  34.34
793.4  25865.12  8948.56  34.60
794.6  25676.57  8938.95  34.81
795.8  25513.36  8940.61  35.04
797.1  25350.08  8939.86  35.27
798.3  25228.50  8955.51  35.50
799.5  25169.97  8981.99  35.69
800.8  25099.23  9007.59  35.89
802.0  25011.42  9033.97  36.12
803.2  24918.76  9046.33  36.30
804.5  24860.18  9070.02  36.48
805.7  24781.04  9090.53  36.68
806.9  24699.71  9103.40  36.86
808.1  24647.73  9134.29  37.06
809.4  24609.13  9164.84  37.24
810.6  24558.63  9191.61  37.43
811.8  24538.32  9234.62  37.63
813.0  24560.28  9283.50  37.80
814.2  24583.06  9328.31  37.95
815.4  24644.79  9393.69  38.12
816.6  24675.27  9439.94  38.26
817.9  24704.84  9482.09  38.38
819.1  24672.89  9491.82  38.47
820.3  24583.02  9491.41  38.61
821.5  24511.70  9488.93  38.71
822.7  24474.49  9511.66  38.86
823.9  24466.74  9535.54  38.97
825.1  24483.13  9553.36  39.02
826.3  24493.16  9576.50  39.10
827.5  24511.03  9596.74  39.15
828.7  24560.16  9616.74  39.16
829.9  24556.61  9633.34  39.23
831.0  24631.50  9662.98  39.23
832.2  24684.15  9695.85  39.28
833.4  24732.69  9729.31  39.34
834.6  24771.09  9758.44  39.39
835.8  24806.25  9798.71  39.50
837.0  24848.21  9843.62  39.62
838.1  24942.61  9900.60  39.69
839.3  24987.97  9944.21  39.80
840.5  25056.73  9993.44  39.88
841.7  25139.84  10059.27  40.01
842.9  25202.72  10114.90  40.13
844.0  25272.39  10174.25  40.26
845.2  25356.92  10231.45  40.35
846.4  25406.55  10282.61  40.47
847.5  25535.27  10358.44  40.57
848.7  25649.51  10423.46  40.64
849.9  25759.43  10488.96  40.72
851.0  25787.85  10515.05  40.78
852.2  25836.49  10552.53  40.84
853.3  25835.02  10568.54  40.91
854.5  25803.13  10584.70  41.02
855.6  25784.28  10604.76  41.13
856.8  25811.14  10639.27  41.22
857.9  25796.36  10656.65  41.31
859.1  25866.40  10707.40  41.40
860.2  25870.46  10733.78  41.49
861.4  25883.89  10764.47  41.59
862.5  25913.95  10790.91  41.64
863.7  25967.63  10834.98  41.72
864.8  25978.23  10857.23  41.79
865.9  25934.02  10867.53  41.90
867.1  25972.57  10886.61  41.92
868.2  25960.64  10905.69  42.01
869.3  25983.57  10919.73  42.03
870.5  25945.69  10909.94  42.05
871.6  25952.82  10929.80  42.11
872.7  25988.86  10959.40  42.17
873.9  26010.48  10973.48  42.19
875.0  25998.57  10964.44  42.17
876.1  25976.68  10966.31  42.22
877.2  25992.15  10973.33  42.22
878.3  25997.76  10970.99  42.20
879.4  26016.59  10981.35  42.21
880.5  26032.32  10990.87  42.22
881.7  26038.68  10985.56  42.19
882.8  26051.76  10997.91  42.22
883.9  26088.59  11000.00  42.16
885.0  26049.66  10972.92  42.12
886.1  26068.54  10954.13  42.02
887.2  25979.14  10910.70  42.00
888.3  25929.87  10871.33  41.93
889.4  25867.81  10831.19  41.87
890.5  25830.84  10811.40  41.85
891.6  25777.28  10792.72  41.87
892.7  25812.52  10768.33  41.72
893.8  25792.32  10771.78  41.76
894.9  25833.34  10764.88  41.67
896.0  25797.95  10744.40  41.65
897.0  25823.30  10746.01  41.61
898.1  25837.83  10735.12  41.55
899.2  25853.12  10724.81  41.48
900.3  25827.20  10690.20  41.39
901.4  25755.93  10659.99  41.39
902.4  25796.28  10644.28  41.26
903.5  25760.57  10614.81  41.21
904.6  25773.48  10602.18  41.14
905.7  25786.56  10589.68  41.07
906.7  25778.44  10560.61  40.97
907.8  25791.16  10556.65  40.93
908.9  25756.23  10524.05  40.86
909.9  25738.83  10488.83  40.75
911.0  25715.27  10448.91  40.63
912.1  25708.69  10404.78  40.47
913.1  25683.06  10360.17  40.34
914.2  25568.28  10292.17  40.25
915.2  25594.38  10254.40  40.07
916.3  25582.28  10228.89  39.98
917.3  25579.53  10167.83  39.75
918.4  25529.08  10096.99  39.55
919.4  25526.52  10032.30  39.30
920.5  25540.93  9973.27  39.05
921.5  25532.64  9916.15  38.84
922.6  25509.72  9831.04  38.54
923.6  25552.64  9774.07  38.25
924.7  25558.13  9692.20  37.92
925.7  25559.01  9608.20  37.59
926.7  25571.07  9537.32  37.30
927.8  25622.74  9454.85  36.90
928.8  25737.00  9388.41  36.48
929.9  25798.01  9311.55  36.09
930.9  25912.02  9257.31  35.73
931.9  26063.45  9199.09  35.29
932.9  26272.00  9155.55  34.85
934.0  26311.65  9060.75  34.44
935.0  26328.00  8958.63  34.03
936.0  26313.67  8855.32  33.65
937.0  26305.79  8729.35  33.18
938.1  26273.03  8621.11  32.81
939.1  26282.27  8495.57  32.32
940.1  26307.38  8419.50  32.00
941.1  26474.98  8355.04  31.56
942.1  26613.43  8290.01  31.15
943.1  26709.35  8204.73  30.72
944.1  26891.46  8137.08  30.26
945.2  26931.87  8010.77  29.74
946.2  27005.05  7914.62  29.31
947.2  27050.94  7810.11  28.87
948.2  27161.01  7707.97  28.38
949.2  27258.97  7592.27  27.85
950.2  27257.00  7479.28  27.44
951.2  27381.90  7385.61  26.97
952.2  27427.92  7258.91  26.47
953.2  27549.11  7159.12  25.99
954.2  27670.16  7076.21  25.57
955.2  27683.23  6974.58  25.19
956.2  27678.04  6888.20  24.89
957.2  27683.31  6810.67  24.60
958.2  27771.67  6736.09  24.26
959.2  27855.45  6705.51  24.07
960.1  27895.78  6650.28  23.84
961.1  27947.74  6620.65  23.69
962.1  27921.09  6569.25  23.53
963.1  28038.72  6552.71  23.37
964.1  28081.62  6552.07  23.33
965.1  28159.91  6525.89  23.17
966.1  28230.04  6531.27  23.14
967.0  28291.66  6516.76  23.03
968.0  28354.15  6499.56  22.92
969.0  28355.00  6522.72  23.00
970.0  28440.42  6518.75  22.92
971.0  28447.07  6518.03  22.91
971.9  28529.94  6508.99  22.81
972.9  28619.85  6510.77  22.75
973.9  28640.46  6494.07  22.67
974.9  28629.25  6485.34  22.65
975.8  28737.28  6480.67  22.55
976.8  28722.61  6525.46  22.72
977.8  28846.97  6526.54  22.62
978.8  28789.28  6564.84  22.80
979.7  28914.30  6546.82  22.64
981.4  29806.10  6230.33  20.90
985.3  29606.90  6258.80  21.14
989.3  29665.19  6372.30  21.48
993.3  29713.32  6527.68  21.97
997.2  29668.74  6641.05  22.38
1001.2  29627.00  6768.28  22.84
1005.2  29568.23  6906.74  23.36
1009.1  29600.49  7072.95  23.89
1013.1  29702.49  7286.92  24.53
1017.1  29789.49  7515.30  25.23
1021.0  29789.99  7718.97  25.91
1025.0  29760.59  7931.39  26.65
1029.0  29636.30  8133.33  27.44
1032.9  29533.53  8336.12  28.23
1036.9  29509.70  8564.46  29.02
1040.9  29556.91  8811.36  29.81
1044.8  29679.34  9062.44  30.53
1048.8  29786.37  9291.87  31.20
1052.7  29868.84  9490.06  31.77
1056.7  29898.31  9642.07  32.25
1060.7  29913.73  9761.98  32.63
1064.6  29918.21  9851.02  32.93
1068.6  29859.11  9877.19  33.08
1072.5  29814.52  9860.55  33.07
1076.5  29798.83  9817.10  32.94
1080.4  29797.49  9742.15  32.69
1084.4  29858.05  9650.01  32.32
1088.3  29928.60  9531.66  31.85
1092.3  29919.24  9351.50  31.26
1096.2  29930.07  9155.59  30.59
1100.2  29956.02  8971.77  29.95
1104.1  29873.92  8758.43  29.32
1108.1  29858.25  8547.48  28.63
1112.0  29809.22  8325.06  27.93
1116.0  29674.06  8060.85  27.16
1119.9  29580.84  7760.47  26.23
1123.9  29636.88  7444.64  25.12
1127.8  29621.76  7031.04  23.74
1131.8  29615.13  6529.07  22.05
1135.7  29658.37  5985.34  20.18
1139.6  29649.41  5456.51  18.40
1143.6  29635.32  5005.16  16.89
1147.5  29635.02  4658.77  15.72
1151.4  29535.85  4392.59  14.87
1155.4  29547.88  4231.44  14.32
1159.3  29582.50  4137.77  13.99
1163.2  29498.44  4054.57  13.75
1167.2  29505.90  4003.74  13.57
1171.1  29517.01  3965.29  13.43
1175.0  29484.53  3923.15  13.31
1179.0  29486.15  3893.31  13.20
1182.9  29537.81  3871.99  13.11
1186.8  29538.86  3848.61  13.03
1190.7  29410.97  3808.21  12.95
1194.7  29255.48  3765.59  12.87
1198.6  29133.72  3739.89  12.84
1202.5  29044.69  3728.02  12.84
1206.4  28972.03  3710.75  12.81
1210.3  28920.11  3700.88  12.80
1214.2  28863.76  3713.78  12.87
1218.2  28763.18  3720.63  12.94
1222.1  28692.28  3725.86  12.99
1226.0  28656.56  3745.39  13.07
1229.9  28600.92  3752.40  13.12
1233.8  28545.33  3755.11  13.15
1237.7  28520.81  3764.92  13.20
1241.6  28465.46  3773.65  13.26
1245.5  28370.21  3778.27  13.32
1249.4  28299.76  3779.69  13.36
1253.3  28232.22  3773.60  13.37
1257.2  28191.00  3775.87  13.39
1261.1  28130.65  3771.36  13.41
1265.0  28057.45  3755.48  13.38
1268.9  27949.80  3729.70  13.34
1272.8  27989.85  3722.10  13.30
1276.7  28109.94  3714.03  13.21
1280.6  28175.48  3694.09  13.11
1284.5  28132.96  3648.74  12.97
1288.4  28112.11  3602.69  12.82
1292.3  28036.25  3546.58  12.65
1296.2  27954.20  3475.73  12.43
1300.1  27848.52  3401.06  12.21
1303.9  27706.57  3318.73  11.98
1307.8  27559.31  3228.80  11.72
1311.7  27397.23  3130.79  11.43
1315.6  27238.78  3035.38  11.14
1319.5  27066.08  2934.39  10.84
1323.3  26913.00  2833.03  10.53
1327.2  26776.06  2742.81  10.24
1331.1  26621.95  2657.57  9.98
1335.0  26429.02  2564.06  9.70
1338.8  26290.11  2480.66  9.44
1342.7  26169.42  2410.43  9.21
1346.5  25929.13  2335.80  9.01
1350.4  25728.90  2263.98  8.80
1354.3  25457.85  2183.41  8.58
1358.1  25158.95  2110.76  8.39
1362.0  24980.59  2045.20  8.19
1365.8  24927.82  1995.27  8.00
1369.7  24996.19  1955.64  7.82
1373.5  24961.93  1889.45  7.57
1377.4  24802.90  1795.01  7.24
1381.2  24660.90  1680.25  6.81
1385.1  24643.85  1577.12  6.40
1389.0  24592.75  1466.52  5.96
1392.8  24461.78  1350.57  5.52
1396.6  24365.22  1243.13  5.10
1400.5  24231.60  1143.01  4.72
1404.3  24125.27  1066.67  4.42
1408.2  24097.32  1001.62  4.16
1412.0  24070.61  949.49  3.94
1415.8  24101.54  912.63  3.79
1419.6  24084.23  881.31  3.66
1423.5  24070.46  863.50  3.59
1427.3  24053.34  844.80  3.51
1431.1  24042.83  823.83  3.43
1434.9  23983.10  810.11  3.38
1438.8  23944.05  804.85  3.36
1442.6  23927.04  794.72  3.32
1446.4  23856.75  785.24  3.29
1450.2  23800.39  782.85  3.29
1454.0  23730.24  779.76  3.29
1457.8  23714.21  777.37  3.28
1461.6  23699.02  780.25  3.29
1465.4  23623.88  784.81  3.32
1469.2  23507.58  790.94  3.36
1473.0  23416.67  796.19  3.40
1476.8  23385.95  807.93  3.45
1480.7  23341.52  826.52  3.54
1484.4  23269.68  842.84  3.62
1488.2  23205.84  861.08  3.71
1492.0  23119.76  880.80  3.81
1495.8  23050.30  904.69  3.92
1499.6  22974.60  919.20  4.00
1503.4  22886.86  925.88  4.05
1507.2  22817.82  935.29  4.10
1510.9  22736.47  939.54  4.13
1514.7  22640.13  943.54  4.17
1518.5  22563.41  952.61  4.22
1522.3  22469.97  968.92  4.31
1526.0  22400.45  981.77  4.38
1529.8  22366.84  990.54  4.43
1533.6  22289.14  1003.80  4.50
1537.3  22206.85  1018.02  4.58
1541.1  22117.21  1030.89  4.66
1544.8  22039.20  1037.60  4.71
1548.6  21965.35  1047.34  4.77
1552.4  21895.60  1061.06  4.85
1556.1  21841.83  1067.63  4.89
