/*** Spectra Vista SIG Data ***/
name= RT.sig
comm= Averaged Ref/Tar of files: RD2T4,RD2T5,RD2T6
data=
346.4  420.42  57.33  13.64
347.9  450.75  55.43  12.30
349.5  483.60  55.95  11.57
351.1  530.40  58.45  11.02
352.6  565.03  58.40  10.34
354.2  606.51  62.61  10.32
355.7  656.66  66.00  10.05
357.3  693.50  68.66  9.90
358.8  709.49  68.27  9.62
360.4  756.26  70.35  9.30
361.9  791.69  70.81  8.94
363.5  828.70  68.79  8.30
365.1  853.01  73.98  8.67
366.6  903.40  71.81  7.95
368.2  945.70  72.07  7.62
369.7  1001.27  71.18  7.11
371.3  1065.67  75.73  7.11
372.8  1118.84  74.59  6.67
374.4  1174.80  77.43  6.59
375.9  1207.05  77.45  6.42
377.4  1242.46  79.58  6.40
379.0  1291.03  80.20  6.21
380.5  1331.54  82.27  6.18
382.1  1370.14  79.78  5.82
383.6  1410.89  77.49  5.49
385.2  1478.58  79.57  5.38
386.7  1541.47  78.16  5.07
388.3  1623.25  84.06  5.18
389.8  1689.09  83.45  4.94
391.3  1759.19  90.05  5.12
392.9  1810.37  92.18  5.09
394.4  1867.55  95.36  5.11
395.9  1933.19  100.06  5.18
397.5  2027.36  105.94  5.23
399.0  2111.50  106.71  5.05
400.6  2171.55  104.71  4.82
402.1  2211.92  101.48  4.59
403.6  2249.66  98.14  4.36
405.1  2301.00  98.86  4.30
406.7  2384.11  100.20  4.20
408.2  2472.52  102.76  4.16
409.7  2546.88  103.79  4.08
411.3  2631.60  108.33  4.12
412.8  2705.75  111.07  4.11
414.3  2787.71  117.32  4.21
415.8  2876.67  119.83  4.17
417.4  2971.06  122.12  4.11
418.9  3045.28  123.97  4.07
420.4  3107.32  127.28  4.10
421.9  3164.55  124.87  3.95
423.5  3218.41  124.53  3.87
425.0  3276.11  126.31  3.86
426.5  3348.27  128.57  3.84
428.0  3442.05  129.99  3.78
429.5  3549.08  130.75  3.68
431.1  3667.47  131.32  3.58
432.6  3798.86  135.21  3.56
434.1  3919.95  137.83  3.52
435.6  4040.93  139.84  3.46
437.1  4156.75  146.25  3.52
438.6  4260.12  148.69  3.49
440.1  4364.81  152.65  3.50
441.6  4482.27  155.13  3.46
443.1  4596.75  159.30  3.47
444.7  4702.53  163.17  3.47
446.2  4800.81  168.12  3.50
447.7  4890.33  170.87  3.49
449.2  4989.60  175.10  3.51
450.7  5075.20  179.43  3.54
452.2  5182.36  181.04  3.49
453.7  5293.22  181.04  3.42
455.2  5420.90  185.12  3.41
456.7  5586.24  189.49  3.39
458.2  5759.76  192.81  3.35
459.7  5937.75  199.97  3.37
461.2  6116.90  204.27  3.34
462.7  6275.74  208.12  3.32
464.2  6436.72  214.35  3.33
465.7  6596.91  216.54  3.28
467.2  6740.71  223.56  3.32
468.7  6906.67  227.20  3.29
470.2  7020.74  228.02  3.25
471.7  7163.00  238.77  3.33
473.2  7370.51  254.96  3.46
474.6  7558.47  260.80  3.45
476.1  7644.72  254.26  3.33
477.6  7700.15  248.47  3.23
479.1  7768.18  245.89  3.17
480.6  7848.16  248.94  3.17
482.1  7962.39  250.51  3.15
483.6  8107.17  253.05  3.12
485.1  8275.11  257.55  3.11
486.6  8460.46  263.38  3.11
488.0  8655.83  268.34  3.10
489.5  8865.28  274.34  3.09
491.0  9070.31  281.87  3.11
492.5  9283.14  288.68  3.11
494.0  9502.08  297.03  3.13
495.4  9693.75  302.50  3.12
496.9  9885.29  311.40  3.15
498.4  10073.76  319.55  3.17
499.9  10263.21  327.01  3.19
501.4  10445.57  336.32  3.22
502.8  10614.32  345.87  3.26
504.3  10775.40  353.76  3.28
505.8  10935.76  363.55  3.32
507.2  11045.59  371.10  3.36
508.7  11134.05  374.37  3.36
510.2  11215.31  382.15  3.41
511.6  11275.45  389.32  3.45
513.1  11370.22  396.56  3.49
514.6  11487.10  404.19  3.52
516.0  11592.19  409.62  3.53
517.5  11734.59  417.74  3.56
519.0  11914.34  426.68  3.58
520.5  12082.43  434.71  3.60
521.9  12296.92  442.26  3.60
523.4  12523.41  455.11  3.63
524.8  12746.57  462.93  3.63
526.3  12997.39  474.66  3.65
527.8  13250.20  486.60  3.67
529.2  13479.96  497.51  3.69
530.7  13731.53  509.37  3.71
532.1  13956.14  520.81  3.73
533.6  14218.79  533.25  3.75
535.0  14488.90  544.58  3.76
536.5  14743.18  557.66  3.78
538.0  15020.53  567.33  3.78
539.4  15262.66  581.13  3.81
540.9  15567.19  600.18  3.86
542.3  15814.67  624.75  3.95
543.8  16005.50  636.18  3.97
545.2  16075.86  641.96  3.99
546.6  16093.98  644.56  4.00
548.1  16130.65  650.97  4.04
549.5  16163.42  656.50  4.06
551.0  16193.95  663.38  4.10
552.4  16250.62  672.26  4.14
553.9  16287.81  678.65  4.17
555.3  16343.15  689.83  4.22
556.8  16451.60  701.06  4.26
558.2  16561.12  712.80  4.30
559.6  16689.15  728.97  4.37
561.1  16864.25  744.69  4.42
562.5  17044.19  761.72  4.47
564.0  17280.73  783.94  4.54
565.4  17500.35  805.75  4.60
566.8  17767.69  830.74  4.68
568.3  18020.32  854.29  4.74
569.7  18288.95  882.61  4.83
571.1  18552.30  908.77  4.90
572.6  18811.98  937.76  4.98
574.0  19065.75  966.79  5.07
575.4  19314.57  998.89  5.17
576.9  19542.02  1028.41  5.26
578.3  19749.50  1059.39  5.36
579.7  19951.15  1092.97  5.48
581.1  20116.04  1123.17  5.58
582.6  20289.72  1156.33  5.70
584.0  20429.03  1192.01  5.83
585.4  20642.71  1235.59  5.99
586.8  20902.66  1291.65  6.18
588.3  21211.32  1350.03  6.36
589.7  21469.50  1403.84  6.54
591.1  21651.28  1448.96  6.69
592.5  21745.64  1488.58  6.85
594.0  21814.46  1523.07  6.98
595.4  21835.61  1559.57  7.14
596.8  21858.27  1593.88  7.29
598.2  21878.59  1629.62  7.45
599.6  21882.66  1666.07  7.61
601.0  21944.99  1709.32  7.79
602.4  21992.95  1749.59  7.96
603.9  22086.40  1794.91  8.13
605.3  22189.70  1835.95  8.27
606.7  22285.80  1875.84  8.42
608.1  22448.94  1919.10  8.55
609.5  22629.55  1964.81  8.68
610.9  22846.11  2013.95  8.82
612.3  23043.01  2058.51  8.93
613.7  23315.88  2112.21  9.06
615.1  23501.88  2158.59  9.18
616.5  23685.52  2204.41  9.31
617.9  23980.88  2265.94  9.45
619.3  24256.37  2326.71  9.59
620.7  24586.23  2390.74  9.72
622.1  24958.01  2478.79  9.93
623.5  25388.80  2586.57  10.19
624.9  25868.32  2707.50  10.47
626.3  26197.94  2812.22  10.73
627.7  25968.13  2845.71  10.96
629.1  25742.15  2871.87  11.16
630.5  25652.18  2908.10  11.34
631.9  25649.26  2949.31  11.50
633.3  25653.89  2985.35  11.64
634.7  25762.85  3022.49  11.73
636.1  25811.41  3060.16  11.86
637.5  25898.40  3094.74  11.95
638.9  26007.39  3120.19  12.00
640.2  26096.29  3113.74  11.93
641.6  26139.36  3049.49  11.67
643.0  26129.31  2915.50  11.16
644.4  26141.43  2738.13  10.47
645.8  26081.44  2557.19  9.80
647.2  26183.65  2431.63  9.29
648.5  26255.62  2345.34  8.93
649.9  26141.77  2281.67  8.73
651.3  26044.00  2256.24  8.66
652.7  25938.60  2252.67  8.68
654.1  25836.56  2274.68  8.80
655.5  25705.77  2282.24  8.88
656.8  25571.13  2273.07  8.89
658.2  25721.00  2275.29  8.85
659.6  26004.10  2274.61  8.75
660.9  26235.30  2256.31  8.60
662.3  26486.68  2230.47  8.42
663.7  26740.70  2197.72  8.22
665.0  26931.59  2157.75  8.01
666.4  27126.53  2119.24  7.81
667.8  27377.40  2089.93  7.63
669.1  27570.69  2063.68  7.49
670.5  27789.58  2048.76  7.37
671.9  27943.92  2036.60  7.29
673.2  28150.11  2040.77  7.25
674.6  28328.18  2048.97  7.23
676.0  28556.98  2075.26  7.27
677.3  28774.83  2111.62  7.34
678.7  29025.38  2169.20  7.47
680.0  29335.75  2257.23  7.69
681.4  29659.06  2379.67  8.02
682.8  29976.92  2543.76  8.49
684.1  30284.28  2758.55  9.11
685.5  30555.80  3028.43  9.91
686.8  30841.02  3362.00  10.90
688.2  31095.23  3746.91  12.05
689.5  31181.77  4164.31  13.35
690.9  31248.17  4612.60  14.76
692.2  31313.15  5076.71  16.21
693.6  31366.04  5552.84  17.70
694.9  31346.61  6011.72  19.18
696.2  31374.30  6476.51  20.64
697.6  31413.57  6929.92  22.06
698.9  31445.92  7373.87  23.45
700.3  31495.32  7801.20  24.77
701.6  31551.69  8214.52  26.04
703.0  31633.25  8598.81  27.18
704.3  31661.93  8942.76  28.24
705.6  31666.50  9254.61  29.23
707.0  31695.00  9557.33  30.15
708.3  31638.30  9802.17  30.98
709.6  31573.09  10028.60  31.76
711.0  31490.40  10223.09  32.46
712.3  31397.72  10390.44  33.09
713.6  31381.56  10578.51  33.71
714.9  31322.51  10738.47  34.28
716.3  31337.88  10914.93  34.83
717.6  31368.21  11087.63  35.35
718.9  31325.68  11231.94  35.86
720.2  31184.60  11329.64  36.33
721.6  31097.99  11430.17  36.76
722.9  30968.40  11505.19  37.15
724.2  30793.09  11538.73  37.47
725.5  30676.39  11583.64  37.76
726.8  30561.73  11604.19  37.97
728.1  30514.20  11641.70  38.15
729.5  30470.30  11662.59  38.28
730.8  30439.18  11686.39  38.39
732.1  30372.78  11691.30  38.49
733.4  30341.41  11705.62  38.58
734.7  30324.86  11717.49  38.64
736.0  30339.25  11741.46  38.70
737.3  30307.24  11748.37  38.76
738.6  30380.09  11805.68  38.86
739.9  30525.77  11886.85  38.94
741.2  30652.44  11940.84  38.96
742.5  30845.96  12026.55  38.99
743.8  31182.11  12165.04  39.01
745.1  31693.89  12374.35  39.04
746.4  32287.41  12637.23  39.14
747.7  32884.68  12944.90  39.36
749.0  33472.63  13281.56  39.68
750.3  33837.02  13522.08  39.96
751.6  33782.95  13575.35  40.18
752.9  33465.33  13481.97  40.29
754.2  33113.12  13331.83  40.26
755.4  32736.10  13142.91  40.15
756.7  32599.96  13076.71  40.11
758.0  32603.17  13073.78  40.10
759.3  32801.54  13155.24  40.11
760.6  33059.69  13265.97  40.13
761.9  33305.29  13377.19  40.17
763.1  33440.03  13435.79  40.18
764.4  33609.17  13508.36  40.19
765.7  33727.42  13570.27  40.24
767.0  33824.21  13613.79  40.25
768.2  33894.56  13657.73  40.29
769.5  33947.17  13698.48  40.35
770.8  34078.59  13771.20  40.41
772.0  34075.73  13795.48  40.48
773.3  34119.74  13836.69  40.55
774.6  34193.43  13889.89  40.62
775.8  34269.14  13935.64  40.67
777.1  34275.74  13961.51  40.73
778.4  34232.54  13955.23  40.77
779.6  34191.00  13965.65  40.85
780.9  34118.67  13954.40  40.90
782.1  33986.37  13904.06  40.91
783.4  33970.56  13903.28  40.93
784.6  33978.92  13888.31  40.87
785.9  34190.36  13958.01  40.82
787.1  34603.27  14140.39  40.86
788.4  34911.34  14389.61  41.22
789.6  34870.56  14544.45  41.71
790.9  34603.51  14497.45  41.90
792.1  34262.48  14339.39  41.85
793.4  33895.76  14194.75  41.88
794.6  33657.66  14135.34  42.00
795.8  33464.70  14072.79  42.05
797.1  33241.95  13972.05  42.03
798.3  33090.48  13907.44  42.03
799.5  32987.11  13878.65  42.07
800.8  32899.45  13849.75  42.10
802.0  32773.01  13819.15  42.17
803.2  32653.99  13775.15  42.19
804.5  32574.06  13762.87  42.25
805.7  32485.12  13736.04  42.28
806.9  32380.90  13701.10  42.31
808.1  32309.47  13681.81  42.35
809.4  32258.60  13683.59  42.42
810.6  32203.38  13651.52  42.39
811.8  32181.26  13650.44  42.42
813.0  32209.50  13644.65  42.36
814.2  32231.22  13645.67  42.34
815.4  32299.83  13682.46  42.36
816.6  32335.02  13704.96  42.38
817.9  32400.45  13736.14  42.39
819.1  32349.79  13711.63  42.39
820.3  32246.83  13660.57  42.36
821.5  32186.00  13630.28  42.35
822.7  32154.75  13602.27  42.30
823.9  32163.04  13593.34  42.26
825.1  32182.60  13575.42  42.18
826.3  32219.95  13556.33  42.07
827.5  32259.97  13543.06  41.98
828.7  32331.92  13523.74  41.83
829.9  32370.26  13506.56  41.73
831.0  32439.17  13501.64  41.62
832.2  32520.83  13497.39  41.50
833.4  32596.97  13493.80  41.40
834.6  32668.75  13496.88  41.31
835.8  32739.53  13494.60  41.22
837.0  32803.58  13512.05  41.19
838.1  32934.04  13537.18  41.10
839.3  33015.35  13539.57  41.01
840.5  33096.73  13547.64  40.93
841.7  33206.76  13574.41  40.88
842.9  33324.63  13590.58  40.78
844.0  33419.87  13603.02  40.70
845.2  33523.57  13620.08  40.63
846.4  33639.01  13645.43  40.56
847.5  33814.40  13712.96  40.55
848.7  33969.02  13771.86  40.54
849.9  34124.45  13845.28  40.57
851.0  34193.60  13882.78  40.60
852.2  34281.76  13923.17  40.61
853.3  34278.32  13923.28  40.62
854.5  34294.40  13941.69  40.65
855.6  34298.64  13943.37  40.65
856.8  34343.95  13958.80  40.64
857.9  34360.40  13952.26  40.61
859.1  34486.47  13985.96  40.55
860.2  34468.83  13967.56  40.52
861.4  34526.71  13971.15  40.46
862.5  34601.44  13975.75  40.39
863.7  34673.77  13997.99  40.37
864.8  34684.18  13991.16  40.34
865.9  34657.41  13961.48  40.28
867.1  34705.42  13966.62  40.24
868.2  34727.74  13956.45  40.19
869.3  34748.23  13956.67  40.17
870.5  34737.31  13924.49  40.09
871.6  34746.49  13923.27  40.07
872.7  34826.17  13945.20  40.04
873.9  34847.65  13943.04  40.01
875.0  34862.04  13918.51  39.92
876.1  34858.95  13903.53  39.89
877.2  34906.84  13886.50  39.78
878.3  34913.25  13853.79  39.68
879.4  34953.96  13840.88  39.60
880.5  34994.04  13819.32  39.49
881.7  34971.73  13792.65  39.44
882.8  35031.47  13820.76  39.45
883.9  35062.11  13833.35  39.45
885.0  35058.21  13839.32  39.48
886.1  35053.32  13863.26  39.55
887.2  34947.17  13822.62  39.55
888.3  34890.90  13801.09  39.55
889.4  34838.32  13750.58  39.47
890.5  34783.32  13710.41  39.42
891.6  34754.67  13670.29  39.33
892.7  34748.44  13632.77  39.23
893.8  34762.24  13625.68  39.20
894.9  34776.17  13605.53  39.12
896.0  34749.08  13568.63  39.05
897.0  34741.90  13558.24  39.03
898.1  34753.82  13547.37  38.98
899.2  34803.95  13507.51  38.81
900.3  34733.61  13457.12  38.74
901.4  34664.92  13414.71  38.70
902.4  34694.92  13400.68  38.62
903.5  34638.99  13359.94  38.57
904.6  34625.60  13353.77  38.57
905.7  34682.73  13343.45  38.47
906.7  34631.41  13322.64  38.47
907.8  34678.76  13313.00  38.39
908.9  34616.98  13266.33  38.32
909.9  34582.03  13228.19  38.25
911.0  34551.83  13168.21  38.11
912.1  34481.51  13114.64  38.03
913.1  34431.80  13069.92  37.96
914.2  34322.68  12987.16  37.84
915.2  34328.97  12956.36  37.74
916.3  34317.40  12926.31  37.67
917.3  34287.88  12902.24  37.63
918.4  34242.27  12834.75  37.48
919.4  34206.15  12784.78  37.38
920.5  34219.85  12752.73  37.27
921.5  34213.88  12688.45  37.09
922.6  34135.83  12619.34  36.97
923.6  34201.45  12581.56  36.79
924.7  34220.83  12533.78  36.63
925.7  34223.48  12475.97  36.45
926.7  34226.40  12438.52  36.34
927.8  34259.70  12407.97  36.22
928.8  34360.76  12399.27  36.09
929.9  34491.56  12389.53  35.92
930.9  34606.44  12388.75  35.80
931.9  34758.96  12386.67  35.64
932.9  35017.71  12411.10  35.44
934.0  35090.01  12351.02  35.20
935.0  35080.43  12282.08  35.01
936.0  35065.15  12200.35  34.79
937.0  35030.78  12105.94  34.56
938.1  34982.93  12021.45  34.36
939.1  34962.92  11929.37  34.12
940.1  35019.85  11866.45  33.88
941.1  35148.24  11855.51  33.73
942.1  35363.76  11844.30  33.49
943.1  35515.23  11816.71  33.27
944.1  35718.14  11804.04  33.05
945.2  35735.56  11731.02  32.83
946.2  35857.22  11663.93  32.53
947.2  35880.67  11605.94  32.35
948.2  36015.25  11563.32  32.11
949.2  36092.06  11518.70  31.91
950.2  36174.07  11436.70  31.62
951.2  36223.60  11372.59  31.40
952.2  36318.75  11330.48  31.20
953.2  36446.26  11283.85  30.96
954.2  36521.70  11231.88  30.75
955.2  36608.84  11148.06  30.45
956.2  36580.52  11079.56  30.29
957.2  36682.25  11036.07  30.09
958.2  36691.87  10992.34  29.96
959.2  36774.30  10950.15  29.78
960.1  36893.69  10918.90  29.60
961.1  36874.89  10902.90  29.57
962.1  36931.25  10838.31  29.35
963.1  36928.90  10832.40  29.33
964.1  37130.87  10832.95  29.18
965.1  37175.69  10845.78  29.17
966.1  37174.47  10826.43  29.12
967.0  37297.38  10809.56  28.98
968.0  37313.56  10791.49  28.92
969.0  37350.13  10787.03  28.88
970.0  37457.03  10765.49  28.74
971.0  37481.33  10771.23  28.74
971.9  37536.08  10738.09  28.61
972.9  37651.66  10738.18  28.52
973.9  37665.23  10720.17  28.46
974.9  37786.30  10735.29  28.41
975.8  37881.18  10749.40  28.38
976.8  37946.84  10701.11  28.20
977.8  38090.95  10665.89  28.00
978.8  38170.05  10666.73  27.95
979.7  38283.48  10658.75  27.84
980.7  38359.97  10604.00  27.64
981.7  38564.54  10608.51  27.51
982.6  38744.07  10597.41  27.35
983.6  39322.70  10648.04  27.08
984.6  39547.26  10670.72  26.98
985.5  39995.40  10740.31  26.85
986.5  40681.83  10971.45  26.97
987.5  41336.41  11188.02  27.07
988.4  42110.93  11445.35  27.18
989.4  42819.26  11792.99  27.54
990.4  43888.31  12183.63  27.76
991.3  45161.97  12793.05  28.33
992.3  46169.27  13211.71  28.62
993.2  47422.14  13777.85  29.05
994.2  48662.74  14404.85  29.60
995.2  50172.54  14641.43  29.18
996.1  50123.73  15098.24  30.12
997.1  51137.26  15330.32  29.98
998.0  49905.40  15005.88  30.07
999.0  50225.22  15681.83  31.22
1000.0  50627.03  15600.63  30.81
1000.9  51940.68  16028.16  30.86
1001.9  51219.96  16136.31  31.50
1002.8  50595.24  16112.42  31.85
1003.8  51351.21  16001.79  31.16
1004.8  50808.08  16246.42  31.98
961.5  45730.11  11569.49  25.30
965.5  44808.83  11770.85  26.27
969.5  43199.63  11728.99  27.15
973.4  41366.58  11464.84  27.72
977.4  39771.11  11301.30  28.42
981.4  39122.89  11255.41  28.77
985.3  38981.97  11210.76  28.76
989.3  39136.64  11224.58  28.68
993.3  39370.15  11273.10  28.63
997.2  39463.14  11295.41  28.62
1001.2  39468.22  11373.09  28.82
1005.2  39437.52  11495.82  29.15
1009.1  39503.04  11650.30  29.49
1013.1  39647.38  11841.74  29.87
1017.1  39796.41  12022.55  30.21
1021.0  39847.08  12169.06  30.54
1025.0  39871.41  12328.76  30.92
1029.0  39773.18  12454.50  31.31
1032.9  39694.29  12578.80  31.69
1036.9  39730.16  12738.50  32.06
1040.9  39850.47  12913.79  32.41
1044.8  40043.56  13099.26  32.71
1048.8  40201.45  13273.86  33.02
1052.7  40310.63  13414.37  33.28
1056.7  40359.16  13505.22  33.46
1060.7  40386.27  13592.75  33.66
1064.6  40416.31  13662.63  33.80
1068.6  40352.20  13663.62  33.86
1072.5  40290.06  13659.39  33.90
1076.5  40269.91  13647.17  33.89
1080.4  40276.50  13612.48  33.80
1084.4  40359.24  13593.29  33.68
1088.3  40465.73  13564.77  33.52
1092.3  40465.11  13465.61  33.28
1096.2  40443.53  13355.42  33.02
1100.2  40476.41  13268.74  32.78
1104.1  40399.59  13132.19  32.51
1108.1  40364.76  13013.89  32.24
1112.0  40298.31  12881.42  31.97
1116.0  40156.20  12702.54  31.63
1119.9  40020.06  12502.61  31.24
1123.9  40077.41  12314.57  30.73
1127.8  40057.60  12021.76  30.01
1131.8  40040.56  11650.98  29.10
1135.7  40069.74  11221.40  28.00
1139.6  40072.13  10744.96  26.81
1143.6  40048.81  10282.87  25.68
1147.5  40022.95  9884.59  24.70
1151.4  39894.49  9523.66  23.87
1155.4  39876.85  9290.08  23.30
1159.3  39885.71  9136.06  22.91
1163.2  39753.20  8988.91  22.61
1167.2  39731.78  8911.36  22.43
1171.1  39748.69  8844.47  22.25
1175.0  39698.87  8768.24  22.09
1179.0  39667.75  8709.90  21.96
1182.9  39750.51  8674.82  21.82
1186.8  39752.24  8638.16  21.73
1190.7  39572.01  8565.58  21.65
1194.7  39359.64  8497.79  21.59
1198.6  39183.38  8456.91  21.58
1202.5  39050.92  8431.21  21.59
1206.4  38957.12  8419.66  21.61
1210.3  38882.01  8425.36  21.67
1214.2  38790.38  8449.19  21.78
1218.2  38676.37  8463.02  21.88
1222.1  38562.03  8485.53  22.00
1226.0  38474.35  8530.62  22.17
1229.9  38411.22  8565.86  22.30
1233.8  38339.10  8596.68  22.42
1237.7  38300.35  8632.57  22.54
1241.6  38235.48  8656.11  22.64
1245.5  38110.92  8655.17  22.71
1249.4  38010.55  8646.57  22.75
1253.3  37911.16  8642.76  22.80
1257.2  37852.86  8653.40  22.86
1261.1  37770.95  8655.66  22.92
1265.0  37675.48  8639.82  22.93
1268.9  37537.04  8595.52  22.90
1272.8  37596.25  8593.70  22.86
1276.7  37757.88  8614.84  22.82
1280.6  37837.10  8589.99  22.70
1284.5  37783.72  8522.76  22.56
1288.4  37771.21  8459.13  22.40
1292.3  37669.50  8373.75  22.23
1296.2  37550.91  8273.18  22.03
1300.1  37418.80  8149.16  21.78
1303.9  37234.58  7991.55  21.46
1307.8  37048.86  7816.36  21.10
1311.7  36850.93  7630.50  20.71
1315.6  36653.92  7431.79  20.28
1319.5  36441.01  7214.23  19.80
1323.3  36255.97  6991.91  19.28
1327.2  36095.27  6777.07  18.78
1331.1  35914.38  6557.27  18.26
1335.0  35675.04  6329.11  17.74
1338.8  35512.95  6123.85  17.24
1342.7  35399.07  5938.12  16.77
1346.5  35129.37  5743.51  16.35
1350.4  34933.72  5571.10  15.95
1354.3  34641.02  5386.80  15.55
1358.1  34306.12  5199.87  15.16
1362.0  34095.64  5034.85  14.77
1365.8  34003.14  4878.08  14.35
1369.7  34077.77  4722.09  13.86
1373.5  34024.38  4517.33  13.28
1377.4  33841.04  4255.70  12.58
1381.2  33685.14  3952.47  11.73
1385.1  33651.33  3636.15  10.81
1389.0  33553.34  3296.71  9.83
1392.8  33364.25  2964.68  8.89
1396.6  33238.52  2674.36  8.05
