/*** Spectra Vista SIG Data ***/
name= RS5.sig
comm= SIG file reprocesed for matching/overlap;Averaged Ref/Tar of files: RD5S13,RD5S14,RD5S15
data=
346.4  366.28  120.61  32.93
347.9  400.03  118.81  29.70
349.5  432.12  121.89  28.21
351.1  468.00  115.65  24.71
352.6  496.51  126.92  25.56
354.2  520.33  124.79  23.98
355.7  575.84  135.60  23.55
357.3  598.14  138.24  23.11
358.8  616.87  140.73  22.81
360.4  668.33  144.92  21.68
361.9  686.05  144.41  21.05
363.5  715.01  144.50  20.21
365.1  743.78  146.56  19.70
366.6  778.54  146.39  18.80
368.2  824.27  156.24  18.95
369.7  873.39  147.14  16.85
371.3  928.49  148.38  15.98
372.8  977.74  157.59  16.12
374.4  1016.27  160.20  15.76
375.9  1052.58  160.20  15.22
377.4  1084.71  163.49  15.07
379.0  1129.79  165.07  14.61
380.5  1157.14  163.72  14.15
382.1  1186.43  163.12  13.75
383.6  1234.64  162.16  13.13
385.2  1293.88  159.13  12.30
386.7  1345.63  162.09  12.05
388.3  1410.38  165.59  11.74
389.8  1464.46  172.75  11.80
391.3  1527.57  179.35  11.74
392.9  1567.60  186.25  11.88
394.4  1609.87  195.07  12.12
395.9  1662.63  206.82  12.44
397.5  1749.05  206.29  11.79
399.0  1827.74  206.83  11.32
400.6  1876.29  200.36  10.68
402.1  1904.04  196.08  10.30
403.6  1943.17  195.32  10.05
405.1  1994.81  191.94  9.62
406.7  2061.92  199.21  9.66
408.2  2135.06  203.45  9.53
409.7  2198.56  205.78  9.36
411.3  2272.05  218.79  9.63
412.8  2335.64  223.73  9.58
414.3  2399.77  233.66  9.74
415.8  2475.00  238.67  9.64
417.4  2547.71  239.17  9.39
418.9  2612.23  241.53  9.25
420.4  2658.25  244.27  9.19
421.9  2705.56  244.26  9.03
423.5  2743.63  251.25  9.16
425.0  2788.02  245.73  8.81
426.5  2844.45  247.11  8.69
428.0  2917.63  248.49  8.52
429.5  3009.90  249.64  8.29
431.1  3112.45  257.22  8.26
432.6  3227.88  264.28  8.19
434.1  3329.29  272.07  8.17
435.6  3423.98  277.61  8.11
437.1  3517.80  282.10  8.02
438.6  3607.74  291.08  8.07
440.1  3694.39  295.26  7.99
441.6  3790.73  303.58  8.01
443.1  3873.83  309.42  7.99
444.7  3959.99  316.74  8.00
446.2  4024.76  321.93  8.00
447.7  4101.41  329.67  8.04
449.2  4174.20  330.34  7.91
450.7  4238.00  331.69  7.83
452.2  4313.18  329.07  7.63
453.7  4393.64  333.26  7.59
455.2  4491.99  338.90  7.54
456.7  4618.24  346.37  7.50
458.2  4761.06  356.26  7.48
459.7  4899.13  364.00  7.43
461.2  5044.37  376.06  7.46
462.7  5165.05  387.12  7.49
464.2  5287.79  399.92  7.56
465.7  5408.14  408.79  7.56
467.2  5518.98  419.39  7.60
468.7  5631.00  432.00  7.67
470.2  5705.20  444.85  7.80
471.7  5821.13  460.43  7.91
473.2  6011.22  459.56  7.65
474.6  6153.75  462.88  7.52
476.1  6204.18  461.31  7.44
477.6  6220.94  460.15  7.40
479.1  6250.52  462.39  7.40
480.6  6293.37  462.16  7.34
482.1  6374.96  463.42  7.27
483.6  6474.12  467.85  7.23
485.1  6599.29  475.07  7.20
486.6  6739.10  488.54  7.25
488.0  6898.13  497.90  7.22
489.5  7058.36  512.06  7.25
491.0  7224.81  530.84  7.35
492.5  7392.87  547.34  7.40
494.0  7557.79  563.75  7.46
495.4  7702.20  583.44  7.57
496.9  7844.83  606.32  7.73
498.4  7990.29  626.90  7.85
499.9  8131.50  651.96  8.02
501.4  8263.45  679.85  8.23
502.8  8392.79  706.64  8.42
504.3  8499.60  735.36  8.65
505.8  8611.18  767.06  8.91
507.2  8674.01  795.41  9.17
508.7  8728.20  831.04  9.52
510.2  8764.92  863.69  9.85
511.6  8789.76  893.99  10.17
513.1  8840.43  932.26  10.55
514.6  8904.34  968.15  10.87
516.0  8958.85  1011.74  11.29
517.5  9056.55  1056.91  11.67
519.0  9171.31  1113.82  12.14
520.5  9287.32  1169.43  12.59
521.9  9437.16  1234.10  13.08
523.4  9612.27  1304.07  13.57
524.8  9785.79  1373.67  14.04
526.3  9984.58  1448.86  14.51
527.8  10184.06  1525.72  14.98
529.2  10366.76  1600.03  15.43
530.7  10567.61  1676.15  15.86
532.1  10746.40  1746.74  16.25
533.6  10959.02  1821.11  16.62
535.0  11168.56  1897.90  16.99
536.5  11376.00  1974.92  17.36
538.0  11592.92  2050.74  17.69
539.4  11785.91  2126.38  18.04
540.9  12037.93  2201.78  18.29
542.3  12246.63  2265.90  18.50
543.8  12400.56  2316.09  18.68
545.2  12445.48  2356.38  18.93
546.6  12442.01  2390.36  19.21
548.1  12455.19  2423.99  19.46
549.5  12460.55  2453.23  19.69
551.0  12456.77  2480.58  19.91
552.4  12484.13  2505.82  20.07
553.9  12491.52  2535.59  20.30
555.3  12509.64  2566.51  20.52
556.8  12569.08  2604.65  20.72
558.2  12630.94  2647.35  20.96
559.6  12713.51  2692.25  21.18
561.1  12831.00  2746.47  21.40
562.5  12959.42  2808.86  21.67
564.0  13129.35  2885.55  21.98
565.4  13288.41  2962.38  22.29
566.8  13487.87  3047.89  22.60
568.3  13678.39  3139.55  22.95
569.7  13879.32  3231.25  23.28
571.1  14074.77  3324.50  23.62
572.6  14269.77  3420.14  23.97
574.0  14463.08  3517.14  24.32
575.4  14650.03  3615.08  24.68
576.9  14818.07  3711.71  25.05
578.3  14977.46  3810.24  25.44
579.7  15131.24  3913.56  25.86
581.1  15254.19  4014.19  26.32
582.6  15387.18  4118.62  26.77
584.0  15508.86  4216.82  27.19
585.4  15681.05  4324.72  27.58
586.8  15909.04  4448.88  27.96
588.3  16162.38  4575.79  28.31
589.7  16371.81  4692.48  28.66
591.1  16519.39  4793.45  29.02
592.5  16589.78  4890.62  29.48
594.0  16627.80  4976.65  29.93
595.4  16637.76  5052.95  30.37
596.8  16651.64  5133.99  30.83
598.2  16659.51  5208.61  31.27
599.6  16659.36  5278.77  31.69
601.0  16705.59  5368.28  32.13
602.4  16752.94  5454.95  32.56
603.9  16822.23  5552.06  33.00
605.3  16905.11  5655.47  33.45
606.7  16973.10  5756.40  33.91
608.1  17114.04  5883.03  34.38
609.5  17255.15  6017.04  34.87
610.9  17434.91  6160.64  35.34
612.3  17598.49  6292.95  35.76
613.7  17818.60  6443.67  36.16
615.1  17967.42  6570.50  36.57
616.5  18122.06  6688.35  36.91
617.9  18356.64  6846.31  37.30
619.3  18578.68  7004.01  37.70
620.7  18848.67  7181.80  38.10
622.1  19119.58  7283.97  38.10
623.5  19414.06  7364.97  37.94
624.9  19741.18  7466.13  37.82
626.3  19952.52  7539.09  37.79
627.7  19741.37  7508.39  38.03
629.1  19544.02  7523.28  38.49
630.5  19457.12  7593.69  39.03
631.9  19461.81  7705.55  39.59
633.3  19457.49  7821.35  40.20
634.7  19533.17  7964.67  40.78
636.1  19566.68  8038.47  41.08
637.5  19597.55  8085.83  41.26
638.9  19677.50  8139.61  41.37
640.2  19731.43  8181.47  41.46
641.6  19754.28  8193.43  41.48
643.0  19715.36  8166.30  41.42
644.4  19707.26  8141.72  41.31
645.8  19650.11  8091.15  41.18
647.2  19716.78  8104.23  41.10
648.5  19765.84  8131.12  41.14
649.9  19671.60  8133.97  41.35
651.3  19608.23  8173.60  41.68
652.7  19503.68  8216.44  42.13
654.1  19390.95  8100.29  41.77
655.5  19238.75  7928.24  41.21
656.8  19118.09  7772.32  40.65
658.2  19225.93  7730.81  40.21
659.6  19449.31  7740.18  39.80
660.9  19643.18  7733.29  39.37
662.3  19825.21  7718.26  38.93
663.7  20008.80  7693.56  38.45
665.0  20165.89  7664.99  38.01
666.4  20328.89  7644.35  37.60
667.8  20535.62  7652.82  37.27
669.1  20711.76  7664.93  37.01
670.5  20914.18  7711.39  36.87
671.9  21055.86  7759.89  36.85
673.2  21237.33  7862.89  37.02
674.6  21400.77  7994.50  37.36
676.0  21596.49  8170.62  37.83
677.3  21793.24  8391.45  38.50
678.7  21992.69  8664.33  39.40
680.0  22269.19  9032.96  40.56
681.4  22542.00  9482.03  42.06
682.8  22829.63  10009.39  43.84
684.1  23112.18  10620.79  45.95
685.5  23364.31  11281.82  48.29
686.8  23617.23  11967.74  50.67
688.2  23841.32  12637.96  53.01
689.5  23927.84  13228.60  55.29
690.9  23997.39  13774.93  57.40
692.2  24047.78  14267.08  59.33
693.6  24110.83  14726.77  61.08
694.9  24095.99  15084.58  62.60
696.2  24121.97  15413.57  63.90
697.6  24149.95  15700.43  65.01
698.9  24174.48  15968.13  66.05
700.3  24215.57  16219.72  66.98
701.6  24264.40  16456.42  67.82
703.0  24323.35  16667.52  68.52
704.3  24329.34  16817.00  69.12
705.6  24327.41  16947.20  69.66
707.0  24334.75  17064.28  70.12
708.3  24282.08  17124.24  70.52
709.6  24223.21  17174.80  70.90
711.0  24124.28  17171.23  71.18
712.3  24015.02  17172.10  71.51
713.6  23977.17  17207.62  71.77
714.9  23907.38  17227.53  72.06
716.3  23880.58  17262.58  72.29
717.6  23876.83  17322.75  72.55
718.9  23805.06  17303.55  72.69
720.2  23675.16  17223.62  72.75
721.6  23576.15  17179.74  72.87
722.9  23446.45  17122.45  73.03
724.2  23274.82  17037.59  73.20
725.5  23133.68  16989.11  73.44
726.8  23009.81  16915.31  73.51
728.1  22933.91  16873.03  73.57
729.5  22856.87  16839.22  73.67
730.8  22796.53  16814.82  73.76
732.1  22719.29  16785.02  73.88
733.4  22660.56  16768.74  74.00
734.7  22602.67  16743.03  74.08
736.0  22569.89  16751.83  74.22
737.3  22520.76  16752.45  74.39
738.6  22554.56  16816.80  74.56
739.9  22633.16  16936.54  74.83
741.2  22698.59  17017.00  74.97
742.5  22841.25  17183.18  75.23
743.8  23091.34  17437.81  75.52
745.1  23491.07  17793.04  75.74
746.4  23957.57  18177.43  75.87
747.7  24466.55  18550.05  75.82
749.0  24948.63  18901.62  75.76
750.3  25229.30  19050.82  75.51
751.6  25175.69  18969.40  75.35
752.9  24925.64  18776.93  75.33
754.2  24630.59  18587.35  75.46
755.4  24314.44  18397.35  75.66
756.7  24210.69  18392.78  75.97
758.0  24235.24  18470.70  76.21
759.3  24394.18  18668.09  76.53
760.6  24621.52  18911.61  76.81
761.9  24823.09  19127.32  77.05
763.1  24955.30  19274.22  77.23
764.4  25125.21  19431.49  77.34
765.7  25257.38  19560.23  77.44
767.0  25349.99  19671.45  77.60
768.2  25431.84  19779.20  77.77
769.5  25509.93  19876.64  77.92
770.8  25646.87  20002.09  77.99
772.0  25674.66  20072.73  78.18
773.3  25762.96  20167.37  78.28
774.6  25839.71  20273.18  78.46
775.8  25921.43  20348.45  78.50
777.1  25948.26  20405.23  78.64
778.4  25918.05  20412.15  78.76
779.6  25945.86  20466.39  78.88
780.9  25904.00  20486.40  79.09
782.1  25811.51  20456.98  79.26
783.4  25819.04  20498.26  79.39
784.6  25849.06  20570.25  79.58
785.9  26028.56  20816.31  79.97
787.1  26416.14  21166.80  80.13
788.4  26716.91  21389.95  80.06
789.6  26732.54  21279.87  79.60
790.9  26499.75  20994.02  79.22
792.1  26215.36  20792.05  79.31
793.4  25939.41  20633.31  79.54
794.6  25766.06  20507.97  79.59
795.8  25608.38  20406.98  79.69
797.1  25427.85  20305.07  79.85
798.3  25301.10  20267.50  80.11
799.5  25235.55  20228.24  80.16
800.8  25155.70  20195.03  80.28
802.0  25074.70  20157.39  80.39
803.2  24986.56  20088.08  80.40
804.5  24925.76  20067.84  80.51
805.7  24855.66  20019.00  80.54
806.9  24776.64  19969.73  80.60
808.1  24708.89  19944.69  80.72
809.4  24677.19  19931.73  80.77
810.6  24617.78  19905.34  80.86
811.8  24606.91  19916.59  80.94
813.0  24601.75  19950.48  81.09
814.2  24620.30  19985.47  81.17
815.4  24684.78  20026.36  81.13
816.6  24715.54  20050.37  81.12
817.9  24752.29  20052.37  81.01
819.1  24717.85  19987.56  80.86
820.3  24615.89  19906.80  80.87
821.5  24558.22  19847.57  80.82
822.7  24525.20  19808.86  80.77
823.9  24512.51  19798.60  80.77
825.1  24512.73  19776.59  80.68
826.3  24527.23  19773.80  80.62
827.5  24554.23  19775.56  80.54
828.7  24585.24  19764.86  80.39
829.9  24620.63  19764.17  80.27
831.0  24677.45  19802.61  80.25
832.2  24735.00  19813.27  80.10
833.4  24800.15  19844.47  80.02
834.6  24827.34  19867.50  80.02
835.8  24886.58  19894.14  79.94
837.0  24941.18  19943.41  79.96
838.1  25036.55  20026.67  79.99
839.3  25073.20  20071.54  80.05
840.5  25138.07  20121.63  80.04
841.7  25214.76  20203.11  80.12
842.9  25311.78  20310.29  80.24
844.0  25352.29  20365.68  80.33
845.2  25454.19  20452.38  80.35
846.4  25527.43  20522.24  80.39
847.5  25656.16  20629.69  80.41
848.7  25745.00  20716.59  80.47
849.9  25879.71  20784.72  80.31
851.0  25913.04  20795.64  80.25
852.2  25966.07  20805.05  80.12
853.3  25941.98  20765.47  80.05
854.5  25934.86  20760.66  80.05
855.6  25916.94  20753.65  80.08
856.8  25944.85  20778.57  80.09
857.9  25943.54  20788.36  80.13
859.1  25996.60  20835.31  80.15
860.2  26027.46  20849.60  80.11
861.4  26023.97  20862.48  80.17
862.5  26059.24  20877.53  80.12
863.7  26115.12  20906.95  80.06
864.8  26101.25  20924.45  80.17
865.9  26082.46  20886.66  80.08
867.1  26099.25  20912.26  80.13
868.2  26099.69  20912.19  80.12
869.3  26128.19  20917.61  80.06
870.5  26099.47  20879.58  80.00
871.6  26087.08  20894.83  80.10
872.7  26136.21  20937.45  80.11
873.9  26148.82  20927.03  80.03
875.0  26142.73  20905.08  79.97
876.1  26142.29  20902.53  79.96
877.2  26184.05  20912.77  79.87
878.3  26169.01  20877.86  79.78
879.4  26191.11  20890.12  79.76
880.5  26214.48  20910.86  79.77
881.7  26220.35  20866.99  79.58
882.8  26271.44  20863.23  79.41
883.9  26272.50  20832.34  79.29
885.0  26275.91  20765.20  79.03
886.1  26278.81  20728.38  78.88
887.2  26194.66  20592.94  78.62
888.3  26154.69  20534.07  78.51
889.4  26083.75  20430.32  78.33
890.5  26060.47  20381.32  78.21
891.6  26043.45  20328.29  78.06
892.7  26025.13  20288.11  77.96
893.8  26046.70  20309.22  77.97
894.9  26070.72  20306.34  77.89
896.0  26059.51  20250.46  77.71
897.0  26054.12  20238.87  77.68
898.1  26079.30  20225.70  77.55
899.2  26095.96  20196.82  77.39
900.3  26052.56  20138.42  77.30
901.4  26029.33  20078.06  77.14
902.4  26018.83  20065.04  77.12
903.5  26017.27  20017.72  76.94
904.6  26012.16  20019.20  76.96
905.7  26050.43  19961.44  76.63
906.7  26024.14  19940.60  76.62
907.8  26076.86  19929.15  76.42
908.9  26057.48  19853.50  76.19
909.9  26017.06  19794.45  76.08
911.0  26009.49  19766.69  76.00
912.1  25979.15  19668.69  75.71
913.1  25944.88  19599.28  75.54
914.2  25856.17  19518.79  75.49
915.2  25844.13  19480.50  75.38
916.3  25883.78  19425.98  75.05
917.3  25847.25  19375.25  74.96
918.4  25819.06  19293.16  74.72
919.4  25792.96  19222.94  74.53
920.5  25804.34  19151.82  74.22
921.5  25824.68  19075.78  73.87
922.6  25820.42  18985.18  73.53
923.6  25802.74  18926.62  73.35
924.7  25837.63  18862.67  73.00
925.7  25830.51  18784.90  72.72
926.7  25889.20  18698.73  72.23
927.8  25949.67  18631.90  71.80
928.8  26061.51  18582.86  71.30
929.9  26114.55  18537.19  70.98
930.9  26214.58  18496.35  70.56
931.9  26363.30  18518.12  70.24
932.9  26568.63  18534.45  69.76
934.0  26604.58  18438.66  69.31
935.0  26610.78  18369.70  69.03
936.0  26639.41  18261.83  68.55
937.0  26632.91  18132.74  68.08
938.1  26589.57  18033.76  67.82
939.1  26594.73  17950.94  67.50
940.1  26647.30  17849.04  66.98
941.1  26757.94  17820.58  66.60
942.1  26950.86  17819.77  66.12
943.1  27064.46  17796.09  65.75
944.1  27200.04  17745.07  65.24
945.2  27250.86  17641.23  64.74
946.2  27341.46  17540.75  64.15
947.2  27385.31  17444.57  63.70
948.2  27528.14  17366.73  63.09
949.2  27562.84  17243.53  62.56
950.2  27601.23  17137.25  62.09
951.2  27696.06  17010.34  61.42
952.2  27776.58  16861.58  60.70
953.2  27874.44  16820.29  60.34
954.2  27994.28  16741.29  59.80
955.2  28013.52  16607.89  59.29
956.2  27975.49  16498.28  58.97
957.2  28074.45  16403.50  58.43
958.2  28163.05  16353.16  58.07
959.2  28188.45  16277.04  57.74
960.1  28244.69  16241.62  57.50
961.1  28322.00  16214.51  57.25
962.1  28304.06  16171.38  57.13
963.1  28357.97  16155.56  56.97
964.1  28464.51  16164.75  56.79
965.1  28543.56  16159.34  56.61
966.1  28584.14  16194.40  56.66
967.0  28655.80  16194.79  56.51
968.0  28697.14  16192.08  56.42
969.0  28718.80  16201.23  56.41
970.0  28760.47  16236.53  56.45
971.0  28834.42  16235.07  56.30
971.9  28848.78  16270.89  56.40
972.9  28890.31  16244.15  56.23
973.9  28948.56  16247.14  56.12
974.9  29046.70  16299.55  56.11
975.8  29063.68  16287.77  56.04
976.8  29052.58  16298.64  56.10
977.8  29165.54  16306.79  55.91
978.8  29197.88  16362.16  56.04
979.7  29189.32  16442.83  56.33
981.4  29653.05  15630.03  52.71
985.3  29580.67  15861.15  53.62
989.3  29694.74  16231.15  54.66
993.3  29811.28  16598.10  55.68
997.2  29873.76  16847.92  56.40
1001.2  29847.48  17052.75  57.13
1005.2  29766.32  17244.83  57.93
1009.1  29802.16  17464.94  58.60
1013.1  29912.80  17758.60  59.37
1017.1  29980.27  18075.26  60.29
1021.0  29997.45  18327.41  61.10
1025.0  29986.05  18562.79  61.90
1029.0  29874.56  18726.88  62.69
1032.9  29757.39  18868.20  63.41
1036.9  29719.10  19074.60  64.18
1040.9  29786.91  19334.91  64.91
1044.8  29914.06  19621.43  65.59
1048.8  30017.23  19887.05  66.25
1052.7  30081.05  20116.73  66.88
1056.7  30106.96  20265.73  67.31
1060.7  30124.55  20378.19  67.65
1064.6  30126.20  20477.00  67.97
1068.6  30068.46  20484.05  68.12
1072.5  30024.99  20451.02  68.11
1076.5  29992.38  20412.83  68.06
1080.4  29983.51  20356.71  67.89
1084.4  30049.89  20313.19  67.60
1088.3  30134.74  20246.89  67.19
1092.3  30115.74  20099.46  66.74
1096.2  30104.84  19931.19  66.21
1100.2  30142.18  19767.97  65.58
1104.1  30082.71  19544.76  64.97
1108.1  30052.27  19342.32  64.36
1112.0  29977.43  19097.18  63.71
1116.0  29868.35  18778.24  62.87
1119.9  29779.89  18429.97  61.89
1123.9  29822.35  18091.25  60.66
1127.8  29798.40  17600.00  59.06
1131.8  29786.58  16974.82  56.99
1135.7  29821.64  16235.97  54.44
1139.6  29831.38  15411.68  51.66
1143.6  29819.95  14619.84  49.03
1147.5  29803.64  13935.09  46.76
1151.4  29713.98  13380.63  45.03
1155.4  29731.43  13046.74  43.88
1159.3  29760.66  12835.08  43.13
1163.2  29674.15  12649.02  42.63
1167.2  29672.28  12554.02  42.31
1171.1  29681.80  12495.38  42.10
1175.0  29651.52  12421.19  41.89
1179.0  29638.87  12360.23  41.70
1182.9  29697.98  12323.96  41.50
1186.8  29706.14  12270.69  41.31
1190.7  29571.10  12163.77  41.13
1194.7  29411.94  12045.49  40.95
1198.6  29289.65  11970.42  40.87
1202.5  29196.66  11940.48  40.90
1206.4  29112.98  11939.03  41.01
1210.3  29056.59  11953.38  41.14
1214.2  29008.58  11971.00  41.27
1218.2  28915.95  11998.77  41.50
1222.1  28833.10  12036.72  41.75
1226.0  28785.60  12085.67  41.99
1229.9  28734.48  12141.24  42.25
1233.8  28673.70  12188.99  42.51
1237.7  28644.25  12237.02  42.72
1241.6  28596.57  12271.21  42.91
1245.5  28494.07  12276.34  43.08
1249.4  28422.55  12292.48  43.25
1253.3  28356.92  12306.50  43.40
1257.2  28323.43  12325.29  43.52
1261.1  28264.79  12311.35  43.56
1265.0  28184.91  12274.59  43.55
1268.9  28067.43  12224.81  43.56
1272.8  28106.70  12223.65  43.49
1276.7  28238.01  12240.65  43.35
1280.6  28297.17  12200.13  43.11
1284.5  28250.81  12092.92  42.81
1288.4  28234.52  11983.00  42.44
1292.3  28165.50  11817.67  41.96
1296.2  28076.33  11622.25  41.40
1300.1  27971.71  11410.07  40.79
1303.9  27830.79  11155.22  40.08
1307.8  27679.51  10876.18  39.29
1311.7  27513.83  10575.60  38.44
1315.6  27356.90  10260.87  37.51
1319.5  27190.78  9924.65  36.50
1323.3  27036.43  9584.79  35.45
1327.2  26898.46  9242.60  34.36
1331.1  26745.75  8897.92  33.27
1335.0  26551.82  8548.52  32.20
1338.8  26417.20  8235.46  31.17
1342.7  26306.22  7948.71  30.22
1346.5  26068.84  7635.68  29.29
1350.4  25867.11  7364.51  28.47
1354.3  25587.95  7088.16  27.70
1358.1  25293.52  6802.83  26.90
1362.0  25095.25  6552.61  26.11
1365.8  25024.00  6333.41  25.31
1369.7  25106.98  6122.93  24.39
1373.5  25078.13  5856.11  23.35
1377.4  24917.97  5499.25  22.07
1381.2  24782.40  5047.65  20.37
1385.1  24754.66  4589.64  18.54
1389.0  24692.16  4164.22  16.86
1392.8  24567.88  3758.69  15.30
1396.6  24460.52  3390.82  13.86
1400.5  24320.99  3083.89  12.68
1404.3  24225.89  2845.82  11.75
1408.2  24204.64  2664.20  11.01
1412.0  24174.50  2530.36  10.47
1415.8  24201.79  2443.49  10.10
1419.6  24176.54  2363.06  9.77
1423.5  24162.30  2301.62  9.53
1427.3  24156.22  2266.30  9.38
1431.1  24149.78  2242.85  9.29
1434.9  24082.82  2208.46  9.17
1438.8  24045.91  2185.36  9.09
1442.6  24021.66  2174.90  9.05
1446.4  23948.95  2157.48  9.01
1450.2  23899.20  2144.80  8.97
1454.0  23823.72  2136.36  8.97
1457.8  23805.13  2138.13  8.98
1461.6  23794.65  2141.90  9.00
1465.4  23719.51  2147.21  9.05
1469.2  23598.58  2159.73  9.15
1473.0  23505.47  2173.78  9.25
1476.8  23479.35  2202.82  9.38
1480.7  23444.07  2242.54  9.57
1484.4  23358.60  2283.80  9.78
